

# ING Filter Throughput Data
# Serial Number : 60
# Filtername    : H6561
# Filtersystem  : Narrow Band
# Passband      : Halpha 6561/38
# FWHM          : 38
# Cosmetics     : lots of internal speckles
# Measured      : 2005-03-02 12:01:47
# Wavelength Throughput
# nm %
640 0.0001
640.2 0.0001
640.4 0.0001
640.6 0.0003
640.8 0.0005
641 0.0008
641.2 0.0007
641.4 0.0006
641.6 0.0006
641.8 0.0005
642 0.0004
642.2 0.0008
642.4 0.0013
642.6 0.0014
642.8 0.0011
643 0.0008
643.2 0.0012
643.4 0.0015
643.6 0.0019
643.8 0.0023
644 0.0027
644.2 0.0027
644.4 0.0027
644.6 0.0029
644.8 0.0033
645 0.0037
645.2 0.0041
645.4 0.0046
645.6 0.0051
645.8 0.0056
646 0.0061
646.2 0.0066
646.4 0.007
646.6 0.0078
646.8 0.0091
647 0.0103
647.2 0.0119
647.4 0.0134
647.6 0.0155
647.8 0.0182
648 0.0208
648.2 0.0234
648.4 0.026
648.6 0.0303
648.8 0.0361
649 0.042
649.2 0.0508
649.4 0.0596
649.6 0.0724
649.8 0.0892
650 0.1059
650.2 0.1382
650.4 0.1705
650.6 0.2222
650.8 0.2932
651 0.3641
651.2 0.5377
651.4 0.7113
651.6 1.0256
651.8 1.4808
652 1.9359
652.2 2.8492
652.4 3.7628
652.6 4.9348
652.8 6.3653
653 7.7959
653.2 9.51
653.4 11.2248
653.6 12.9704
653.8 14.7471
654 16.5238
654.2 18.1515
654.4 19.7797
654.6 21.5145
654.8 23.356
655 25.1975
655.2 27.032
655.4 28.867
655.6 30.5047
655.8 31.9449
656 33.3851
656.2 33.6613
656.4 33.9376
656.6 33.4451
656.8 32.1831
657 30.9211
657.2 28.5858
657.4 26.2498
657.6 23.6825
657.8 20.8838
658 18.0851
658.2 15.7883
658.4 13.4909
658.6 11.4648
658.8 9.7101
659 7.9554
659.2 6.8096
659.4 5.6635
659.6 4.7076
659.8 3.942
660 3.1765
660.2 2.6718
660.4 2.1669
660.6 1.7526
660.8 1.429
661 1.1054
661.2 0.9165
661.4 0.7275
661.6 0.5761
661.8 0.4622
662 0.3484
662.2 0.2882
662.4 0.228
662.6 0.181
662.8 0.1472
663 0.1133
663.2 0.0954
663.4 0.0775
663.6 0.0632
663.8 0.0527
664 0.0421
664.2 0.036
664.4 0.0299
664.6 0.0253
664.8 0.0221
665 0.0189
665.2 0.0166
665.4 0.0143
665.6 0.0121
665.8 0.01
666 0.0079
666.2 0.0073
666.4 0.0068
666.6 0.0062
666.8 0.0055
667 0.0048
667.2 0.0045
667.4 0.0041
667.6 0.0037
667.8 0.0032
668 0.0027
668.2 0.0025
668.4 0.0023
668.6 0.002
668.8 0.0015
669 0.0011
669.2 0.0013
669.4 0.0016
669.6 0.0016
669.8 0.0015
670 0.0013
