

# ING Filter Throughput Data
# Serial Number : 73
# Filtername    : H6785
# Filtersystem  : Narrow Band
# Passband      : Halpha 6785/58
# FWHM          : 58
# Cosmetics     : Filter being investigated as poor image quality observed with ACAM.
# Measured      : 2010-07-09 11:03:39
# Wavelength Throughput
# nm %
670 0.028507
670.1 0.0313169
670.2 0.0304941
670.3 0.0358746
670.4 0.0330627
670.5 0.0343178
670.6 0.0365583
670.7 0.0390554
670.8 0.0392185
670.9 0.0461838
671 0.0479817
671.1 0.0497718
671.2 0.0480274
671.3 0.0505718
671.4 0.0601009
671.5 0.0628991
671.6 0.0651861
671.7 0.0696682
671.8 0.0753796
671.9 0.0798021
672 0.0825144
672.1 0.0902961
672.2 0.107257
672.3 0.101626
672.4 0.110809
672.5 0.122915
672.6 0.140333
672.7 0.148316
672.8 0.166103
672.9 0.177358
673 0.199802
673.1 0.210086
673.2 0.235278
673.3 0.274525
673.4 0.301481
673.5 0.336788
673.6 0.374427
673.7 0.423531
673.8 0.478906
673.9 0.557756
674 0.628172
674.1 0.725555
674.2 0.825262
674.3 0.965045
674.4 1.09396
674.5 1.28549
674.6 1.52352
674.7 1.80525
674.8 2.10219
674.9 2.55484
675 3.02052
675.1 3.58838
675.2 4.33107
675.3 5.26774
675.4 6.39815
675.5 7.76931
675.6 9.4547
675.7 11.6154
675.8 13.938
675.9 16.7414
676 20.0164
676.1 23.641
676.2 27.5475
676.3 31.3801
676.4 35.3696
676.5 38.9745
676.6 41.8488
676.7 44.511
676.8 46.1582
676.9 47.6677
677 48.7602
677.1 49.2722
677.2 49.6561
677.3 49.9138
677.4 50.1608
677.5 50.4028
677.6 50.4046
677.7 50.8327
677.8 51.2721
677.9 51.9783
678 52.562
678.1 53.6358
678.2 54.3648
678.3 55.0935
678.4 56.12
678.5 56.9582
678.6 57.7732
678.7 58.4166
678.8 58.943
678.9 59.4941
679 59.3918
679.1 59.4353
679.2 59.2639
679.3 59.0416
679.4 58.4756
679.5 57.8636
679.6 57.1456
679.7 56.69
679.8 55.9464
679.9 55.1627
680 54.6462
680.1 53.9074
680.2 53.4804
680.3 53.1641
680.4 52.9157
680.5 52.5203
680.6 52.4453
680.7 52.3582
680.8 52.2915
680.9 51.9785
681 51.7224
681.1 51.11
681.2 50.0717
681.3 48.6471
681.4 46.7823
681.5 44.6722
681.6 41.8118
681.7 38.4475
681.8 34.9085
681.9 31.2142
682 27.427
682.1 23.7448
682.2 20.6499
682.3 17.7969
682.4 15.1578
682.5 12.8417
682.6 10.9141
682.7 9.26045
682.8 7.88886
682.9 6.59449
683 5.65648
683.1 4.91336
683.2 4.20952
683.3 3.59257
683.4 3.13197
683.5 2.71059
683.6 2.3308
683.7 2.02002
683.8 1.76085
683.9 1.56393
684 1.36955
684.1 1.1876
684.2 1.04236
684.3 0.92741
684.4 0.81952
684.5 0.715994
684.6 0.640332
684.7 0.566703
684.8 0.508514
684.9 0.448712
685 0.413675
685.1 0.366943
685.2 0.338012
685.3 0.297748
685.4 0.2678
685.5 0.247175
685.6 0.223864
685.7 0.203526
685.8 0.182918
685.9 0.169523
686 0.156017
686.1 0.136899
686.2 0.128034
686.3 0.116579
686.4 0.11227
686.5 0.102543
686.6 0.0922179
686.7 0.08703
686.8 0.0781429
686.9 0.0712972
687 0.0691639
687.1 0.0616009
687.2 0.0624746
687.3 0.0530849
687.4 0.0492884
687.5 0.045079
687.6 0.0422736
687.7 0.0369098
687.8 0.0363865
687.9 0.0320933
688 0.0330463
688.1 0.0286533
688.2 0.0294996
688.3 0.0257755
688.4 0.0260333
688.5 0.0215762
688.6 0.0225821
688.7 0.0191836
688.8 0.0162921
688.9 0.0187068
689 0.0148525
689.1 0.0150521
689.2 0.0160392
689.3 0.015104
689.4 0.0116604
689.5 0.0118822
689.6 0.0102882
689.7 0.00961823
689.8 0.0108826
689.9 0.0102641
690 0.0107077
