# ING Filter Throughput Data
# Serial Number : 66
# Filtername    : H6645
# Filtersystem  : Narrow Band
# Passband      : Halpha 6645/50
# FWHM          : 50
# Cosmetics     : Tiny spots visible all over the narrowband coating side, these cannot be cleaned off with Propanol. They appear to be just under #the coating.
#
#In addition there appears to be some scratch/scuff marks on the silvered side
# Measured      : 2010-07-09 09:55:59
# Wavelength Throughput
# nm %
655 0.0147466
655.1 0.0134238
655.2 0.017791
655.3 0.0145149
655.4 0.0178512
655.5 0.0185249
655.6 0.0198635
655.7 0.0230644
655.8 0.0228061
655.9 0.0210169
656 0.0211819
656.1 0.0217285
656.2 0.0280292
656.3 0.0292351
656.4 0.0275381
656.5 0.031619
656.6 0.0350971
656.7 0.0351349
656.8 0.0382643
656.9 0.0375464
657 0.041113
657.1 0.043838
657.2 0.0495616
657.3 0.0525369
657.4 0.0555527
657.5 0.0557341
657.6 0.0652865
657.7 0.0672007
657.8 0.0645815
657.9 0.0768035
658 0.0822502
658.1 0.0913265
658.2 0.101577
658.3 0.102209
658.4 0.111354
658.5 0.131856
658.6 0.136001
658.7 0.148723
658.8 0.164853
658.9 0.179496
659 0.198827
659.1 0.217298
659.2 0.235664
659.3 0.260287
659.4 0.291461
659.5 0.313105
659.6 0.363147
659.7 0.412944
659.8 0.453575
659.9 0.521749
660 0.581281
660.1 0.667136
660.2 0.757761
660.3 0.863528
660.4 0.974122
660.5 1.16526
660.6 1.31464
660.7 1.51284
660.8 1.79973
660.9 2.12228
661 2.44975
661.1 2.91449
661.2 3.48439
661.3 4.17405
661.4 4.97849
661.5 5.90669
661.6 7.04088
661.7 8.56914
661.8 10.3065
661.9 12.4497
662 15.0269
662.1 18.1214
662.2 21.2387
662.3 24.8414
662.4 28.6665
662.5 32.7901
662.6 36.598
662.7 40.5481
662.8 43.9578
662.9 46.5771
663 48.7456
663.1 50.1169
663.2 51.2834
663.3 52.1028
663.4 52.276
663.5 52.4294
663.6 52.4773
663.7 52.1785
663.8 52.259
663.9 52.1281
664 51.7796
664.1 51.7978
664.2 52.0112
664.3 52.2501
664.4 52.2845
664.5 52.5291
664.6 52.6339
664.7 52.8508
664.8 53.1177
664.9 53.2263
665 53.3161
665.1 53.5712
665.2 53.5297
665.3 53.5394
665.4 53.5175
665.5 53.3217
665.6 53.1462
665.7 52.6236
665.8 52.0224
665.9 51.3847
666 50.7904
666.1 49.7434
666.2 48.8646
666.3 47.4936
666.4 46.0213
666.5 44.251
666.6 42.2155
666.7 39.9995
666.8 37.7627
666.9 35.2178
667 32.4746
667.1 30.0674
667.2 27.3434
667.3 24.7764
667.4 22.1513
667.5 19.7506
667.6 17.489
667.7 15.3131
667.8 13.4778
667.9 11.9259
668 10.3535
668.1 9.05918
668.2 7.8887
668.3 6.87838
668.4 5.97946
668.5 5.1751
668.6 4.56951
668.7 3.97717
668.8 3.48371
668.9 3.03391
669 2.66848
669.1 2.34923
669.2 2.05758
669.3 1.77704
669.4 1.61795
669.5 1.43907
669.6 1.23782
669.7 1.09102
669.8 0.981006
669.9 0.85775
670 0.759892
670.1 0.683918
670.2 0.618743
670.3 0.551112
670.4 0.504668
670.5 0.436788
670.6 0.400464
670.7 0.360007
670.8 0.337977
670.9 0.290633
671 0.257669
671.1 0.233493
671.2 0.226025
671.3 0.203778
671.4 0.180663
671.5 0.162649
671.6 0.148896
671.7 0.136032
671.8 0.127939
671.9 0.120013
672 0.113571
672.1 0.103391
672.2 0.0905422
672.3 0.0806989
672.4 0.0759778
672.5 0.0715302
672.6 0.0648855
672.7 0.0610794
672.8 0.0587534
672.9 0.0484383
673 0.0460164
673.1 0.0481403
673.2 0.0418741
673.3 0.0418465
673.4 0.034331
673.5 0.0339753
673.6 0.0296004
673.7 0.0281784
673.8 0.0265109
673.9 0.0285328
674 0.0280699
674.1 0.020722
674.2 0.020562
674.3 0.0181525
674.4 0.0182215
674.5 0.0179626
674.6 0.0176122
674.7 0.0145795
674.8 0.01446
674.9 0.0151217
675 0.0122337
