

# ING Filter Throughput Data
# Serial Number : 72
# Filtername    : H6736
# Filtersystem  : Narrow Band
# Passband      : Halpha 6736/48
# FWHM          : 48
# Cosmetics     : Bad transmitted wavefront errors, likely to degrade the PSF by > 1" in ACAM. 
# Measured      : 2010-04-07 14:47:33
# Wavelength Throughput
# nm %
660 0.00176653
660.1 0.00218676
660.2 0.00204305
660.3 0.00193728
660.4 0.00280892
660.5 0.00285999
660.6 0.00246141
660.7 0.00280664
660.8 0.00301591
660.9 0.00300898
661 0.0032779
661.1 0.00361834
661.2 0.00346466
661.3 0.00348991
661.4 0.00381152
661.5 0.00447173
661.6 0.00426162
661.7 0.00470663
661.8 0.00399527
661.9 0.00464196
662 0.00517005
662.1 0.00484819
662.2 0.00548779
662.3 0.00610883
662.4 0.0060062
662.5 0.00644897
662.6 0.0064298
662.7 0.00719675
662.8 0.00685375
662.9 0.00744273
663 0.00842036
663.1 0.00815473
663.2 0.00862228
663.3 0.00933864
663.4 0.00925613
663.5 0.00923721
663.6 0.00993581
663.7 0.0105376
663.8 0.0114875
663.9 0.0118629
664 0.0123915
664.1 0.0134818
664.2 0.0142243
664.3 0.0152412
664.4 0.0154006
664.5 0.0181453
664.6 0.0173832
664.7 0.01799
664.8 0.0199172
664.9 0.0208254
665 0.0218778
665.1 0.0230964
665.2 0.0247847
665.3 0.0260146
665.4 0.0274449
665.5 0.0291753
665.6 0.030832
665.7 0.0323711
665.8 0.0352049
665.9 0.0372229
666 0.0393706
666.1 0.0429076
666.2 0.0446427
666.3 0.0480812
666.4 0.0508008
666.5 0.0547251
666.6 0.0586499
666.7 0.0636595
666.8 0.0684108
666.9 0.0740995
667 0.080563
667.1 0.0861789
667.2 0.0936863
667.3 0.10182
667.4 0.111491
667.5 0.119971
667.6 0.132284
667.7 0.145076
667.8 0.159128
667.9 0.173677
668 0.189911
668.1 0.211401
668.2 0.23635
668.3 0.259454
668.4 0.290336
668.5 0.32626
668.6 0.366983
668.7 0.411062
668.8 0.465068
668.9 0.530837
669 0.60792
669.1 0.688971
669.2 0.799688
669.3 0.92732
669.4 1.07308
669.5 1.23826
669.6 1.44844
669.7 1.70001
669.8 2.00794
669.9 2.35207
670 2.79063
670.1 3.32121
670.2 3.91754
670.3 4.58072
670.4 5.39307
670.5 6.31633
670.6 7.40977
670.7 8.56492
670.8 9.90357
670.9 11.4105
671 12.9734
671.1 14.5632
671.2 16.3356
671.3 18.2443
671.4 20.2642
671.5 22.2399
671.6 24.3874
671.7 26.5562
671.8 28.6724
671.9 30.6558
672 32.6817
672.1 34.7271
672.2 36.6683
672.3 38.4226
672.4 40.1735
672.5 41.7805
672.6 43.2175
672.7 44.4567
672.8 45.5608
672.9 46.6069
673 47.5145
673.1 48.2391
673.2 48.8775
673.3 49.4137
673.4 49.8453
673.5 50.1448
673.6 50.4186
673.7 50.602
673.8 50.7124
673.9 50.7909
674 50.8155
674.1 50.8089
674.2 50.7113
674.3 50.633
674.4 50.4723
674.5 50.2867
674.6 50.015
674.7 49.6712
674.8 49.254
674.9 48.7273
675 48.1181
675.1 47.4512
675.2 46.6636
675.3 45.7193
675.4 44.6418
675.5 43.5141
675.6 42.175
675.7 40.689
675.8 39.1618
675.9 37.6113
676 35.899
676.1 34.1014
676.2 32.1863
676.3 30.3592
676.4 28.3966
676.5 26.4056
676.6 24.4954
676.7 22.6952
676.8 20.8896
676.9 19.084
677 17.3042
677.1 15.6918
677.2 14.0989
677.3 12.5739
677.4 11.2105
677.5 10.0268
677.6 8.87584
677.7 7.7994
677.8 6.81809
677.9 5.9952
678 5.20101
678.1 4.49948
678.2 3.90349
678.3 3.41276
678.4 2.96465
678.5 2.56431
678.6 2.21546
678.7 1.93643
678.8 1.67449
678.9 1.45001
679 1.26634
679.1 1.11476
679.2 0.978025
679.3 0.856199
679.4 0.749852
679.5 0.664011
679.6 0.583299
679.7 0.513318
679.8 0.454448
679.9 0.406414
680 0.362546
680.1 0.321483
680.2 0.286663
680.3 0.25819
680.4 0.230458
680.5 0.20645
680.6 0.185023
680.7 0.167416
680.8 0.151989
680.9 0.137984
681 0.12407
681.1 0.113235
681.2 0.103471
681.3 0.0938362
681.4 0.0855283
681.5 0.0790545
681.6 0.0718295
681.7 0.0666196
681.8 0.0600339
681.9 0.0560511
682 0.0511569
682.1 0.0476788
682.2 0.0437741
682.3 0.0406415
682.4 0.0376838
682.5 0.0352578
682.6 0.0324599
682.7 0.0297122
682.8 0.0276637
682.9 0.0255687
683 0.0238601
683.1 0.0223173
683.2 0.0206642
683.3 0.0196484
683.4 0.0186946
683.5 0.0172459
683.6 0.015972
683.7 0.0148471
683.8 0.0138467
683.9 0.0133102
684 0.0123015
684.1 0.0115934
684.2 0.010728
684.3 0.0105211
684.4 0.0096324
684.5 0.00911653
684.6 0.00834392
684.7 0.00816832
684.8 0.00785045
684.9 0.00728359
685 0.00721388
685.1 0.00646715
685.2 0.00637045
685.3 0.00611011
685.4 0.00543543
685.5 0.00539587
685.6 0.00492736
685.7 0.00472893
685.8 0.00425506
685.9 0.00394249
686 0.00378633
686.1 0.00394844
686.2 0.00357173
686.3 0.00341259
686.4 0.00353738
686.5 0.00328962
686.6 0.00293664
686.7 0.00276769
686.8 0.00252272
686.9 0.00267982
687 0.00252135
687.1 0.00243431
687.2 0.00203987
687.3 0.00188596
687.4 0.00188722
687.5 0.00205787
687.6 0.00195579
687.7 0.00172188
687.8 0.00172452
687.9 0.00154021
688 0.00139436
688.1 0.00146112
688.2 0.00132692
688.3 0.00135274
688.4 0.00128443
688.5 0.000996663
688.6 0.00117227
688.7 0.00126628
688.8 0.000890768
688.9 0.000998906
689 0.0011784
689.1 0.000980419
689.2 0.000824112
689.3 0.000992596
689.4 0.000791676
689.5 0.00061773
689.6 0.000383812
689.7 0.000784
689.8 0.00110135
689.9 0.00104104
690 0.000834261
