

# ING Filter Throughput Data
# Serial Number : 67
# Filtername    : H6656
# Filtersystem  : Narrow Band
# Passband      : Halpha 6656/44
# FWHM          : 44
# Cosmetics     : 
# Measured      : 2010-11-29 17:04:21
# Wavelength Throughput
# nm %
655 0.01
655.1 0.01
655.2 0.01
655.3 0
655.4 0
655.5 0.01
655.6 0.01
655.7 0
655.8 0.01
655.9 0.01
656 0.01
656.1 0.01
656.2 0.01
656.3 0.01
656.4 0.01
656.5 0.01
656.6 0.01
656.7 0.01
656.8 0.01
656.9 0.01
657 0.01
657.1 0.01
657.2 0.01
657.3 0.01
657.4 0.01
657.5 0.01
657.6 0.01
657.7 0.02
657.8 0.01
657.9 0.02
658 0.01
658.1 0.02
658.2 0.02
658.3 0.02
658.4 0.02
658.5 0.03
658.6 0.02
658.7 0.02
658.8 0.03
658.9 0.03
659 0.03
659.1 0.03
659.2 0.04
659.3 0.05
659.4 0.04
659.5 0.05
659.6 0.05
659.7 0.05
659.8 0.06
659.9 0.06
660 0.07
660.1 0.08
660.2 0.09
660.3 0.09
660.4 0.1
660.5 0.1
660.6 0.13
660.7 0.13
660.8 0.16
660.9 0.17
661 0.2
661.1 0.21
661.2 0.24
661.3 0.27
661.4 0.31
661.5 0.36
661.6 0.42
661.7 0.49
661.8 0.55
661.9 0.63
662 0.74
662.1 0.86
662.2 1.04
662.3 1.22
662.4 1.45
662.5 1.71
662.6 2.08
662.7 2.48
662.8 3.04
662.9 3.65
663 4.54
663.1 5.53
663.2 6.68
663.3 7.96
663.4 9.62
663.5 11.47
663.6 13.66
663.7 16.12
663.8 18.5
663.9 21.28
664 23.7
664.1 26.14
664.2 28.39
664.3 30.75
664.4 32.34
664.5 33.86
664.6 35.49
664.7 36.15
664.8 37.11
664.9 38.12
665 38.21
665.1 39
665.2 39.66
665.3 40.42
665.4 41.08
665.5 42.07
665.6 43.03
665.7 44.24
665.8 45.59
665.9 46.33
666 47.37
666.1 49
666.2 49.56
666.3 50.03
666.4 50.26
666.5 50.09
666.6 50.12
666.7 49.98
666.8 48.25
666.9 47.04
667 45.57
667.1 44.07
667.2 41.91
667.3 40.05
667.4 38.27
667.5 35.98
667.6 33.69
667.7 31.54
667.8 29.65
667.9 27.54
668 25.71
668.1 23.68
668.2 22.15
668.3 20.33
668.4 18.63
668.5 17.04
668.6 15.44
668.7 13.84
668.8 12.64
668.9 11.44
669 10.22
669.1 9.17
669.2 8.14
669.3 7.23
669.4 6.42
669.5 5.61
669.6 4.97
669.7 4.48
669.8 3.9
669.9 3.44
670 3.03
670.1 2.63
670.2 2.34
670.3 2.07
670.4 1.78
670.5 1.58
670.6 1.44
670.7 1.28
670.8 1.11
670.9 0.97
671 0.87
671.1 0.75
671.2 0.69
671.3 0.61
671.4 0.55
671.5 0.49
671.6 0.44
671.7 0.39
671.8 0.34
671.9 0.31
672 0.28
672.1 0.25
672.2 0.23
672.3 0.22
672.4 0.19
672.5 0.17
672.6 0.16
672.7 0.13
672.8 0.14
672.9 0.12
673 0.1
673.1 0.1
673.2 0.09
673.3 0.08
673.4 0.08
673.5 0.07
673.6 0.06
673.7 0.06
673.8 0.06
673.9 0.05
674 0.05
674.1 0.04
674.2 0.04
674.3 0.04
674.4 0.03
674.5 0.03
674.6 0.03
674.7 0.02
674.8 0.02
674.9 0.03
675 0.02
