

# ING Filter Throughput Data
# Serial Number : 75
# Filtername    : H6876
# Filtersystem  : Narrow Band
# Passband      : Halpha 6876/56
# FWHM          : 56
# Cosmetics     : 
# Measured      : 2010-11-29 17:06:19
# Wavelength Throughput
# nm %
670 0
670.1 0
670.2 0
670.3 0
670.4 0
670.5 -0.01
670.6 0
670.7 0
670.8 0
670.9 0
671 0
671.1 0
671.2 0
671.3 0
671.4 0
671.5 0
671.6 0
671.7 0
671.8 0
671.9 0
672 0
672.1 0
672.2 0
672.3 0.01
672.4 0
672.5 0
672.6 0
672.7 -0.01
672.8 0.01
672.9 0.01
673 0
673.1 0.01
673.2 0
673.3 0
673.4 0
673.5 0
673.6 0
673.7 0
673.8 0
673.9 0.01
674 0
674.1 0
674.2 0.01
674.3 0.01
674.4 0.01
674.5 0.01
674.6 0.01
674.7 0.01
674.8 0
674.9 0.01
675 0.01
675.1 0
675.2 0.01
675.3 0.01
675.4 0.01
675.5 0.01
675.6 0.01
675.7 0.01
675.8 0.01
675.9 0.01
676 0.02
676.1 0.01
676.2 0.01
676.3 0.02
676.4 0.01
676.5 0.01
676.6 0.01
676.7 0.01
676.8 0.02
676.9 0.02
677 0.02
677.1 0.02
677.2 0.02
677.3 0.02
677.4 0.02
677.5 0.03
677.6 0.02
677.7 0.02
677.8 0.02
677.9 0.02
678 0.03
678.1 0.02
678.2 0.03
678.3 0.03
678.4 0.04
678.5 0.03
678.6 0.03
678.7 0.04
678.8 0.03
678.9 0.04
679 0.04
679.1 0.04
679.2 0.04
679.3 0.05
679.4 0.05
679.5 0.06
679.6 0.06
679.7 0.06
679.8 0.07
679.9 0.07
680 0.07
680.1 0.08
680.2 0.09
680.3 0.09
680.4 0.1
680.5 0.11
680.6 0.12
680.7 0.13
680.8 0.14
680.9 0.14
681 0.16
681.1 0.17
681.2 0.18
681.3 0.2
681.4 0.21
681.5 0.23
681.6 0.26
681.7 0.27
681.8 0.3
681.9 0.34
682 0.37
682.1 0.41
682.2 0.44
682.3 0.5
682.4 0.54
682.5 0.61
682.6 0.67
682.7 0.75
682.8 0.85
682.9 0.95
683 1.08
683.1 1.22
683.2 1.36
683.3 1.55
683.4 1.79
683.5 2.06
683.6 2.33
683.7 2.68
683.8 3.11
683.9 3.64
684 4.19
684.1 4.86
684.2 5.55
684.3 6.54
684.4 7.65
684.5 8.95
684.6 10.44
684.7 12.32
684.8 14.31
684.9 16.47
685 19.23
685.1 21.53
685.2 24.64
685.3 27.94
685.4 31.25
685.5 35.07
685.6 37.85
685.7 40.89
685.8 43.88
685.9 46.26
686 49.12
686.1 51
686.2 52.3
686.3 53.71
686.4 54.73
686.5 55.94
686.6 56.34
686.7 56.51
686.8 57.02
686.9 57.19
687 57.71
687.1 57.53
687.2 58.14
687.3 57.33
687.4 57.96
687.5 58
687.6 57.83
687.7 57.63
687.8 57.69
687.9 57.48
688 58.29
688.1 57.19
688.2 57.78
688.3 57.34
688.4 56.67
688.5 57.83
688.6 56.69
688.7 56.82
688.8 56.27
688.9 56.32
689 56.52
689.1 56.97
689.2 56.92
689.3 56.83
689.4 57.28
689.5 57.06
689.6 57.45
689.7 56.9
689.8 56.54
689.9 56.22
690 55.63
690.1 54.04
690.2 52.02
690.3 50.23
690.4 47.78
690.5 44.56
690.6 41.61
690.7 37.91
690.8 34.17
690.9 30.45
691 26.95
691.1 23.67
691.2 20.93
691.3 18.32
691.4 15.6
691.5 13.49
691.6 11.61
691.7 10.07
691.8 8.57
691.9 7.36
692 6.3
692.1 5.54
692.2 4.76
692.3 4.15
692.4 3.58
692.5 3.12
692.6 2.71
692.7 2.35
692.8 2.06
692.9 1.82
693 1.6
693.1 1.39
693.2 1.26
693.3 1.12
693.4 0.97
693.5 0.88
693.6 0.78
693.7 0.71
693.8 0.63
693.9 0.56
694 0.51
694.1 0.47
694.2 0.42
694.3 0.37
694.4 0.35
694.5 0.3
694.6 0.28
694.7 0.27
694.8 0.24
694.9 0.22
695 0.18
695.1 0.19
695.2 0.17
695.3 0.17
695.4 0.14
695.5 0.13
695.6 0.12
695.7 0.11
695.8 0.1
695.9 0.1
696 0.09
696.1 0.09
696.2 0.08
696.3 0.08
696.4 0.06
696.5 0.06
696.6 0.06
696.7 0.05
696.8 0.06
696.9 0.05
697 0.06
697.1 0.04
697.2 0.04
697.3 0.04
697.4 0.04
697.5 0.02
697.6 0.03
697.7 0.03
697.8 0.04
697.9 0.03
698 0.02
698.1 0.02
698.2 0.02
698.3 0.01
698.4 0.02
698.5 0.02
698.6 0.02
698.7 0.02
698.8 0.04
698.9 0.02
699 0.02
699.1 -0.01
699.2 0.02
699.3 0
699.4 0
699.5 0.01
699.6 0
699.7 0.01
699.8 0.02
699.9 0.01
700 0.01
