

# ING Filter Throughput Data
# Serial Number : 77
# Filtername    : H6962
# Filtersystem  : Narrow Band
# Passband      : Halpha 6962/51
# FWHM          : 51
# Cosmetics     : Bad transmitted wavefront errors, likely to degrade the PSF by > 1" in ACAM. 
# Measured      : 2010-06-30 14:13:15
# Wavelength Throughput
# nm %
685 0.00714462
685.1 0.00703981
685.2 0.00889499
685.3 0.00957549
685.4 0.00825721
685.5 0.0108823
685.6 0.0115779
685.7 0.0119512
685.8 0.0126626
685.9 0.0110409
686 0.0106762
686.1 0.0152824
686.2 0.0163507
686.3 0.0162212
686.4 0.0160991
686.5 0.0171893
686.6 0.0187484
686.7 0.0183489
686.8 0.0201775
686.9 0.0209959
687 0.0224713
687.1 0.0217836
687.2 0.0228544
687.3 0.025357
687.4 0.0299092
687.5 0.0297127
687.6 0.0310626
687.7 0.0307967
687.8 0.0357327
687.9 0.0343003
688 0.0376739
688.1 0.0467668
688.2 0.0459485
688.3 0.0457701
688.4 0.0472619
688.5 0.0522475
688.6 0.0534531
688.7 0.0589583
688.8 0.0617867
688.9 0.0647986
689 0.0734531
689.1 0.0748182
689.2 0.0791153
689.3 0.082381
689.4 0.0960666
689.5 0.0978247
689.6 0.106982
689.7 0.118887
689.8 0.12696
689.9 0.134941
690 0.146815
690.1 0.165015
690.2 0.172167
690.3 0.187459
690.4 0.209068
690.5 0.225779
690.6 0.24703
690.7 0.268554
690.8 0.2916
690.9 0.316142
691 0.363033
691.1 0.394796
691.2 0.430921
691.3 0.478008
691.4 0.536607
691.5 0.599144
691.6 0.669099
691.7 0.754579
691.8 0.836787
691.9 0.977107
692 1.09378
692.1 1.20998
692.2 1.39956
692.3 1.58154
692.4 1.84335
692.5 2.08035
692.6 2.40613
692.7 2.83824
692.8 3.30045
692.9 3.77537
693 4.3971
693.1 5.12295
693.2 6.11775
693.3 7.07904
693.4 8.38283
693.5 9.92643
693.6 11.7217
693.7 13.6872
693.8 16.069
693.9 18.6166
694 21.8808
694.1 24.8862
694.2 28.625
694.3 32.5842
694.4 36.3078
694.5 39.5089
694.6 43.0195
694.7 45.7645
694.8 48.6317
694.9 50.5301
695 52.3286
695.1 53.7142
695.2 54.6006
695.3 55.0837
695.4 55.8341
695.5 55.8849
695.6 56.34
695.7 56.4258
695.8 56.3092
695.9 56.2443
696 56.5269
696.1 56.8927
696.2 56.465
696.3 56.6761
696.4 56.7422
696.5 56.8692
696.6 56.5874
696.7 56.5885
696.8 56.6734
696.9 56.3594
697 56.3794
697.1 56.1796
697.2 55.9741
697.3 55.5222
697.4 55.5015
697.5 55.206
697.6 55.006
697.7 54.8052
697.8 54.6614
697.9 54.5076
698 53.9053
698.1 53.624
698.2 53.2847
698.3 52.4809
698.4 51.5554
698.5 50.5518
698.6 48.8421
698.7 46.956
698.8 44.4615
698.9 41.8637
699 38.5793
699.1 35.1276
699.2 31.4148
699.3 28.009
699.4 24.6029
699.5 21.3675
699.6 18.3746
699.7 15.847
699.8 13.3711
699.9 11.3955
700 9.74177
700.1 8.38767
700.2 7.07049
700.3 6.11574
700.4 5.19967
700.5 4.41519
700.6 3.77678
700.7 3.26857
700.8 2.80518
700.9 2.45728
701 2.12279
701.1 1.82346
701.2 1.59253
701.3 1.3913
701.4 1.19916
701.5 1.06331
701.6 0.950732
701.7 0.832184
701.8 0.715085
701.9 0.654811
702 0.568446
702.1 0.508701
702.2 0.452228
702.3 0.398005
702.4 0.365125
702.5 0.318703
702.6 0.298775
702.7 0.254216
702.8 0.243263
702.9 0.217666
703 0.195187
703.1 0.17554
703.2 0.150548
703.3 0.14919
703.4 0.130009
703.5 0.122822
703.6 0.109914
703.7 0.107956
703.8 0.0894132
703.9 0.0880821
704 0.0758149
704.1 0.0715632
704.2 0.0659819
704.3 0.0627985
704.4 0.0527175
704.5 0.0526814
704.6 0.0529488
704.7 0.0435565
704.8 0.0418513
704.9 0.039555
705 0.0375362
705.1 0.0356946
705.2 0.031501
705.3 0.0288465
705.4 0.0261811
705.5 0.0226642
705.6 0.027686
705.7 0.0214631
705.8 0.02116
705.9 0.0239686
706 0.0171995
706.1 0.0192444
706.2 0.0129972
706.3 0.016281
706.4 0.0135909
706.5 0.0135127
706.6 0.0131905
706.7 0.0130364
706.8 0.0120727
706.9 0.00969353
707 0.00905881
707.1 0.0116015
707.2 0.0124337
707.3 0.00774524
707.4 0.0088315
707.5 0.00667836
707.6 0.00671283
707.7 0.00527918
707.8 0.00455048
707.9 0.00588411
708 0.00674253
708.1 0.00576063
708.2 0.00539217
708.3 0.00604456
708.4 0.00511194
708.5 0.00507561
708.6 0.00375042
708.7 0.00360337
708.8 0.00575735
708.9 0.00392339
709 0.00304107
709.1 0.0034585
709.2 0.00236458
709.3 0.00314898
709.4 0.00227866
709.5 0.00228137
709.6 0.00349327
709.7 0.00400935
709.8 0.00293863
709.9 0.00448148
710 0.00446434
