#GG375
#Measured with ALFOSC, zero-transmission level has low accuracy
3500.0   0.08
3505.0   0.04
3510.0   0.02
3515.0   0.01
3520.0   0.01
3525.0  -0.00
3530.0  -0.01
3535.0  -0.03
3540.0  -0.01
3545.0   0.00
3550.0   0.03
3555.0   0.06
3560.0   0.16
3565.0   0.28
3570.0   0.43
3575.0   0.63
3580.0   0.87
3585.0   1.21
3590.0   1.60
3595.0   2.07
3600.0   2.65
3605.0   3.29
3610.0   4.09
3615.0   4.94
3620.0   5.90
3625.0   6.98
3630.0   8.14
3635.0   9.40
3640.0  10.71
3645.0  12.12
3650.0  13.61
3655.0  15.16
3660.0  16.79
3665.0  18.43
3670.0  20.11
3675.0  21.81
3680.0  23.56
3685.0  25.32
3690.0  27.04
3695.0  28.77
3700.0  30.54
3705.0  32.21
3710.0  33.90
3715.0  35.58
3720.0  37.24
3725.0  38.88
3730.0  40.36
3735.0  41.86
3740.0  43.36
3745.0  44.82
3750.0  46.20
3755.0  47.50
3760.0  48.77
3765.0  50.04
3770.0  51.23
3775.0  52.44
3780.0  53.58
3785.0  54.63
3790.0  55.67
3795.0  56.66
3800.0  57.61
3805.0  58.49
3810.0  59.47
3815.0  60.34
3820.0  61.09
3825.0  61.97
3830.0  62.74
3835.0  63.46
3840.0  64.12
3845.0  64.74
3850.0  65.47
3855.0  66.07
3860.0  66.71
3865.0  67.30
3870.0  67.79
3875.0  68.41
3880.0  68.88
3885.0  69.40
3890.0  69.86
3895.0  70.26
3900.0  70.75
3905.0  71.20
3910.0  71.57
3915.0  71.93
3920.0  72.38
3925.0  72.69
3930.0  73.02
3935.0  73.35
3940.0  73.69
3945.0  74.01
3950.0  74.28
3955.0  74.62
3960.0  74.87
3965.0  75.12
3970.0  75.39
3975.0  75.71
3980.0  75.90
3985.0  76.04
3990.0  76.40
3995.0  76.66
4000.0  76.71
4005.0  76.89
4010.0  77.16
4015.0  77.37
4020.0  77.52
4025.0  77.66
4030.0  77.75
4035.0  78.02
4040.0  78.06
4045.0  78.26
4050.0  78.43
4055.0  78.50
4060.0  78.75
4065.0  78.82
4070.0  78.74
4075.0  78.88
4080.0  79.11
4085.0  79.00
4090.0  79.26
4095.0  79.22
4100.0  79.33
4105.0  79.31
4110.0  79.60
4115.0  79.57
4120.0  79.60
4125.0  79.97
4130.0  79.76
4135.0  79.80
4140.0  79.97
4145.0  80.04
4150.0  80.19
4155.0  80.13
4160.0  80.19
4165.0  80.30
4170.0  80.28
4175.0  80.32
4180.0  80.36
4185.0  80.49
4190.0  80.41
4195.0  80.60
4200.0  80.49
4205.0  80.60
4210.0  80.72
4215.0  80.74
4220.0  80.85
4225.0  80.81
4230.0  80.84
4235.0  81.02
4240.0  81.08
4245.0  80.92
4250.0  81.02
4255.0  81.23
4260.0  81.36
4265.0  81.23
4270.0  81.30
4275.0  81.29
4280.0  81.28
4285.0  81.49
4290.0  81.56
4295.0  81.73
4300.0  81.38
4305.0  81.56
4310.0  81.73
4315.0  81.80
4320.0  81.77
4325.0  81.96
4330.0  82.02
4335.0  82.01
4340.0  82.27
4345.0  82.29
4350.0  82.32
4355.0  82.61
4360.0  82.64
4365.0  82.54
4370.0  82.57
4375.0  82.86
4380.0  82.81
4385.0  82.96
4390.0  83.11
4395.0  83.31
4400.0  83.08
4405.0  83.36
4410.0  83.29
4415.0  83.28
4420.0  83.37
4425.0  83.36
4430.0  83.42
4435.0  83.38
4440.0  83.43
4445.0  83.57
4450.0  83.61
4455.0  83.56
4460.0  83.64
4465.0  83.55
4470.0  83.47
4475.0  83.57
4480.0  83.58
4485.0  83.74
4490.0  83.57
4495.0  83.39
4500.0  83.38
4505.0  83.53
4510.0  83.41
4515.0  83.56
4520.0  83.52
4525.0  83.55
4530.0  83.52
4535.0  83.59
4540.0  83.25
4545.0  83.55
4550.0  83.46
4555.0  83.50
4560.0  83.48
4565.0  83.42
4570.0  83.38
4575.0  83.52
4580.0  83.39
4585.0  83.43
4590.0  83.36
4595.0  83.46
4600.0  83.38
4605.0  83.32
4610.0  83.51
4615.0  83.62
4620.0  83.62
4625.0  83.70
4630.0  83.51
4635.0  83.58
4640.0  83.56
4645.0  83.49
4650.0  83.62
4655.0  83.58
4660.0  83.69
4665.0  83.51
4670.0  83.59
4675.0  83.74
4680.0  83.67
4685.0  83.72
4690.0  83.68
4695.0  83.86
4700.0  83.77
4705.0  83.84
4710.0  83.67
4715.0  83.75
4720.0  83.80
4725.0  83.74
4730.0  83.83
4735.0  83.77
4740.0  83.83
4745.0  83.80
4750.0  83.79
4755.0  83.93
4760.0  83.79
4765.0  83.83
4770.0  83.82
4775.0  83.98
4780.0  83.95
4785.0  83.93
4790.0  83.93
4795.0  83.86
4800.0  83.91
4805.0  83.98
4810.0  83.95
4815.0  84.03
4820.0  84.09
4825.0  84.06
4830.0  84.12
4835.0  84.02
4840.0  84.14
4845.0  84.11
4850.0  84.08
4855.0  84.22
4860.0  84.03
4865.0  84.12
4870.0  84.07
4875.0  84.12
4880.0  84.18
4885.0  84.26
4890.0  84.19
4895.0  84.36
4900.0  84.27
4905.0  84.27
4910.0  84.24
4915.0  84.22
4920.0  84.16
4925.0  84.44
4930.0  84.17
4935.0  84.40
4940.0  84.34
4945.0  84.46
4950.0  84.33
4955.0  84.38
4960.0  84.43
4965.0  84.39
4970.0  84.36
4975.0  84.44
4980.0  84.49
4985.0  84.52
4990.0  84.43
4995.0  84.50
5000.0  84.52
5005.0  84.49
5010.0  84.54
5015.0  84.65
5020.0  84.69
5025.0  84.63
5030.0  84.50
5035.0  84.61
5040.0  84.56
5045.0  84.68
5050.0  84.63
5055.0  84.71
5060.0  84.64
5065.0  84.51
5070.0  84.64
5075.0  84.86
5080.0  84.74
5085.0  84.63
5090.0  84.70
5095.0  84.69
5100.0  84.83
5105.0  84.88
5110.0  84.82
5115.0  84.82
5120.0  84.91
5125.0  84.79
5130.0  84.90
5135.0  84.83
5140.0  84.83
5145.0  85.00
5150.0  84.96
5155.0  84.89
5160.0  84.84
5165.0  85.14
5170.0  84.80
5175.0  84.92
5180.0  84.91
5185.0  84.99
5190.0  85.09
5195.0  84.93
5200.0  85.17
5205.0  85.09
5210.0  85.13
5215.0  84.98
5220.0  85.20
5225.0  85.24
5230.0  85.11
5235.0  85.25
5240.0  85.06
5245.0  85.22
5250.0  85.21
5255.0  85.25
5260.0  85.31
5265.0  85.27
5270.0  85.13
5275.0  85.36
5280.0  85.26
5285.0  85.33
5290.0  85.34
5295.0  85.28
5300.0  85.27
5305.0  85.22
5310.0  85.41
5315.0  85.34
5320.0  85.32
5325.0  85.34
5330.0  85.42
5335.0  85.55
5340.0  85.47
5345.0  85.31
5350.0  85.39
5355.0  85.46
5360.0  85.42
5365.0  85.43
5370.0  85.53
5375.0  85.61
5380.0  85.47
5385.0  85.51
5390.0  85.53
5395.0  85.65
5400.0  85.50
5405.0  85.68
5410.0  85.61
5415.0  85.64
5420.0  85.50
5425.0  85.54
5430.0  85.62
5435.0  85.67
5440.0  85.61
5445.0  85.50
5450.0  85.54
5455.0  85.70
5460.0  85.64
5465.0  85.61
5470.0  85.67
5475.0  85.73
5480.0  85.68
5485.0  85.75
5490.0  85.66
5495.0  85.66
5500.0  85.82
5505.0  85.65
5510.0  85.76
5515.0  85.78
5520.0  85.65
5525.0  85.86
5530.0  85.88
5535.0  85.77
5540.0  85.81
5545.0  85.75
5550.0  85.77
5555.0  85.81
5560.0  85.77
5565.0  85.86
5570.0  85.94
5575.0  85.86
5580.0  85.91
5585.0  85.92
5590.0  85.91
5595.0  85.92
5600.0  85.97
5605.0  85.98
5610.0  85.84
5615.0  86.00
5620.0  85.93
5625.0  85.94
5630.0  86.04
5635.0  85.94
5640.0  86.08
5645.0  86.04
5650.0  85.93
5655.0  85.92
5660.0  85.96
5665.0  85.95
5670.0  86.05
5675.0  86.02
5680.0  86.04
5685.0  86.10
5690.0  85.98
5695.0  86.12
5700.0  86.03
5705.0  86.00
5710.0  86.01
5715.0  86.08
5720.0  86.19
5725.0  86.19
5730.0  86.15
5735.0  86.22
5740.0  86.14
5745.0  86.05
5750.0  86.18
5755.0  86.06
5760.0  86.08
5765.0  86.14
5770.0  86.17
5775.0  86.13
5780.0  86.24
5785.0  86.27
5790.0  86.24
5795.0  86.22
5800.0  86.20
5805.0  86.25
5810.0  86.31
5815.0  86.27
5820.0  86.23
5825.0  86.21
5830.0  86.25
5835.0  86.26
5840.0  86.24
5845.0  86.23
5850.0  86.27
5855.0  86.36
5860.0  86.40
5865.0  86.18
5870.0  86.24
5875.0  86.34
5880.0  86.42
5885.0  86.36
5890.0  86.43
5895.0  86.44
5900.0  86.38
5905.0  86.37
5910.0  86.44
5915.0  86.30
5920.0  86.27
5925.0  86.25
5930.0  86.35
5935.0  86.47
5940.0  86.38
5945.0  86.38
5950.0  86.45
5955.0  86.37
5960.0  86.31
5965.0  86.36
5970.0  86.44
5975.0  86.44
5980.0  86.41
5985.0  86.41
5990.0  86.46
5995.0  86.35
6000.0  86.50
6005.0  86.55
6010.0  86.51
6015.0  86.49
6020.0  86.45
6025.0  86.48
6030.0  86.51
6035.0  86.52
6040.0  86.51
6045.0  86.56
6050.0  86.54
6055.0  86.59
6060.0  86.55
6065.0  86.57
6070.0  86.51
6075.0  86.50
6080.0  86.62
6085.0  86.57
6090.0  86.62
6095.0  86.58
6100.0  86.58
6105.0  86.59
6110.0  86.59
6115.0  86.58
6120.0  86.52
6125.0  86.71
6130.0  86.65
6135.0  86.75
6140.0  86.60
6145.0  86.66
6150.0  86.64
6155.0  86.69
6160.0  86.63
6165.0  86.67
6170.0  86.63
6175.0  86.80
6180.0  86.71
6185.0  86.71
6190.0  86.75
6195.0  86.61
6200.0  86.71
6205.0  86.77
6210.0  86.68
6215.0  86.62
6220.0  86.69
6225.0  86.74
6230.0  86.77
6235.0  86.74
6240.0  86.70
6245.0  86.77
6250.0  86.72
6255.0  86.80
6260.0  86.81
6265.0  86.75
6270.0  86.82
6275.0  86.73
6280.0  86.77
6285.0  86.77
6290.0  86.81
6295.0  86.80
6300.0  86.82
6305.0  86.85
6310.0  86.79
6315.0  86.78
6320.0  86.93
6325.0  86.84
6330.0  86.85
6335.0  86.85
6340.0  86.90
6345.0  86.87
6350.0  87.00
6355.0  86.89
6360.0  86.82
6365.0  86.81
6370.0  86.87
6375.0  86.83
6380.0  86.89
6385.0  86.89
6390.0  86.84
6395.0  86.94
6400.0  86.86
6405.0  86.91
6410.0  86.98
6415.0  87.03
6420.0  86.94
6425.0  86.99
6430.0  86.92
6435.0  86.80
6440.0  86.94
6445.0  86.86
6450.0  87.06
6455.0  86.88
6460.0  86.85
6465.0  86.98
6470.0  86.87
6475.0  86.98
6480.0  86.93
6485.0  87.02
6490.0  86.87
6495.0  87.02
6500.0  87.07
6505.0  87.01
6510.0  86.94
6515.0  86.97
6520.0  86.95
6525.0  86.93
6530.0  86.96
6535.0  87.02
6540.0  86.92
6545.0  87.02
6550.0  86.96
6555.0  86.92
6560.0  87.08
6565.0  86.99
6570.0  86.99
6575.0  86.99
6580.0  87.06
6585.0  86.96
6590.0  87.01
6595.0  87.08
6600.0  87.04
6605.0  87.02
6610.0  87.02
6615.0  87.11
6620.0  87.07
6625.0  86.95
6630.0  87.07
6635.0  87.05
6640.0  87.03
6645.0  87.06
6650.0  87.10
6655.0  86.99
6660.0  87.04
6665.0  87.11
6670.0  87.10
6675.0  87.04
6680.0  87.09
6685.0  87.02
6690.0  87.03
6695.0  87.08
6700.0  87.03
6705.0  86.97
6710.0  87.08
6715.0  87.14
6720.0  87.14
6725.0  87.10
6730.0  87.10
6735.0  87.05
6740.0  87.06
6745.0  87.07
6750.0  87.06
6755.0  87.08
6760.0  87.12
6765.0  87.13
6770.0  87.00
6775.0  87.14
6780.0  87.06
6785.0  87.13
6790.0  87.04
6795.0  87.11
6800.0  87.24
6805.0  87.13
6810.0  87.14
6815.0  87.20
6820.0  87.19
6825.0  87.13
6830.0  87.26
6835.0  87.01
6840.0  87.22
6845.0  87.25
6850.0  87.16
6855.0  87.23
6860.0  87.17
6865.0  87.18
6870.0  87.16
6875.0  87.18
6880.0  87.13
6885.0  87.16
6890.0  87.25
6895.0  87.22
6900.0  87.25
6905.0  87.28
6910.0  87.22
6915.0  87.23
6920.0  87.09
6925.0  87.26
6930.0  87.30
6935.0  87.28
6940.0  87.25
6945.0  87.20
6950.0  87.18
6955.0  87.42
6960.0  87.21
6965.0  87.28
6970.0  87.22
6975.0  87.27
6980.0  87.28
6985.0  87.28
6990.0  87.30
6995.0  87.40
7000.0  87.42
7005.0  87.40
7010.0  87.45
7015.0  87.38
7020.0  87.35
7025.0  87.36
7030.0  87.33
7035.0  87.38
7040.0  87.46
7045.0  87.37
7050.0  87.33
7055.0  87.51
7060.0  87.37
7065.0  87.35
7070.0  87.46
7075.0  87.39
7080.0  87.35
7085.0  87.47
7090.0  87.47
7095.0  87.43
7100.0  87.44
7105.0  87.48
7110.0  87.44
7115.0  87.44
7120.0  87.53
7125.0  87.49
7130.0  87.41
7135.0  87.47
7140.0  87.52
7145.0  87.34
7150.0  87.43
7155.0  87.56
7160.0  87.53
7165.0  87.46
7170.0  87.58
7175.0  87.52
7180.0  87.62
7185.0  87.51
7190.0  87.50
7195.0  87.60
7200.0  87.50
7205.0  87.52
7210.0  87.55
7215.0  87.49
7220.0  87.63
7225.0  87.52
7230.0  87.68
7235.0  87.65
7240.0  87.45
7245.0  87.58
7250.0  87.50
7255.0  87.57
7260.0  87.59
7265.0  87.62
7270.0  87.58
7275.0  87.70
7280.0  87.58
7285.0  87.59
7290.0  87.55
7295.0  87.65
7300.0  87.68
7305.0  87.63
7310.0  87.48
7315.0  87.71
7320.0  87.64
7325.0  87.58
7330.0  87.69
7335.0  87.64
7340.0  87.49
7345.0  87.54
7350.0  87.72
7355.0  87.61
7360.0  87.69
7365.0  87.68
7370.0  87.67
7375.0  87.64
7380.0  87.61
7385.0  87.56
7390.0  87.80
7395.0  87.70
7400.0  87.63
7405.0  87.72
7410.0  87.65
7415.0  87.65
7420.0  87.73
7425.0  87.78
7430.0  87.72
7435.0  87.64
7440.0  87.62
7445.0  87.63
7450.0  87.63
7455.0  87.68
7460.0  87.68
7465.0  87.64
7470.0  87.74
7475.0  87.80
7480.0  87.67
7485.0  87.71
7490.0  87.77
7495.0  87.69
7500.0  87.74
7505.0  87.68
7510.0  87.74
7515.0  87.76
7520.0  87.72
7525.0  87.77
7530.0  87.76
7535.0  87.82
7540.0  87.78
7545.0  87.74
7550.0  87.68
7555.0  87.85
7560.0  87.82
7565.0  87.79
7570.0  87.87
7575.0  87.87
7580.0  87.77
7585.0  87.85
7590.0  87.75
7595.0  87.85
7600.0  87.92
7605.0  87.85
7610.0  87.84
7615.0  87.86
7620.0  87.93
7625.0  87.82
7630.0  87.83
7635.0  87.88
7640.0  87.84
7645.0  87.81
7650.0  87.76
7655.0  87.78
7660.0  87.88
7665.0  87.85
7670.0  87.90
7675.0  87.95
7680.0  87.97
7685.0  87.80
7690.0  87.83
7695.0  87.81
7700.0  87.92
7705.0  87.94
7710.0  87.91
7715.0  87.86
7720.0  87.90
7725.0  87.87
7730.0  87.88
7735.0  87.80
7740.0  87.92
7745.0  87.91
7750.0  87.87
7755.0  87.79
7760.0  87.93
7765.0  88.00
7770.0  87.91
7775.0  87.94
7780.0  87.90
7785.0  87.84
7790.0  87.90
7795.0  88.01
7800.0  87.98
7805.0  87.90
7810.0  87.97
7815.0  87.98
7820.0  87.86
7825.0  87.91
7830.0  88.06
7835.0  87.99
7840.0  87.90
7845.0  87.98
7850.0  87.88
7855.0  88.02
7860.0  87.99
7865.0  87.89
7870.0  87.96
7875.0  88.12
7880.0  87.98
7885.0  87.93
7890.0  87.94
7895.0  88.00
7900.0  87.90
7905.0  87.91
7910.0  88.05
7915.0  87.95
7920.0  87.99
7925.0  87.91
7930.0  87.92
7935.0  88.00
7940.0  88.00
7945.0  87.95
7950.0  87.97
7955.0  88.14
7960.0  88.08
7965.0  87.95
7970.0  88.07
7975.0  88.06
7980.0  87.96
7985.0  87.98
7990.0  87.99
7995.0  88.08
8000.0  88.12
8005.0  87.94
8010.0  88.09
8015.0  88.03
8020.0  87.96
8025.0  88.06
8030.0  88.06
8035.0  88.07
8040.0  87.98
8045.0  88.04
8050.0  87.97
8055.0  88.00
8060.0  88.10
8065.0  88.05
8070.0  88.06
8075.0  88.09
8080.0  87.99
8085.0  88.13
8090.0  87.98
8095.0  87.94
8100.0  88.07
8105.0  88.06
8110.0  88.02
8115.0  88.05
8120.0  88.01
8125.0  88.09
8130.0  87.97
8135.0  87.99
8140.0  88.10
8145.0  88.09
8150.0  88.12
8155.0  88.14
8160.0  88.14
8165.0  88.04
8170.0  88.17
8175.0  88.04
8180.0  88.01
8185.0  88.02
8190.0  88.15
8195.0  88.01
8200.0  87.94
8205.0  88.01
8210.0  88.03
8215.0  88.04
8220.0  88.09
8225.0  88.10
8230.0  88.16
8235.0  88.01
8240.0  88.11
8245.0  88.04
8250.0  88.01
8255.0  88.04
8260.0  88.09
8265.0  88.12
8270.0  88.04
8275.0  88.13
8280.0  88.05
8285.0  88.15
8290.0  88.02
8295.0  88.14
8300.0  88.10
8305.0  88.16
8310.0  88.11
8315.0  88.18
8320.0  88.16
8325.0  88.12
8330.0  87.97
8335.0  88.04
8340.0  88.05
8345.0  88.08
8350.0  88.13
8355.0  88.07
8360.0  88.13
8365.0  88.16
8370.0  88.18
8375.0  88.03
8380.0  88.13
8385.0  88.16
8390.0  88.15
8395.0  88.17
8400.0  88.25
8405.0  88.14
8410.0  87.99
8415.0  88.04
8420.0  88.10
8425.0  88.02
8430.0  88.03
8435.0  88.23
8440.0  88.01
8445.0  88.12
8450.0  88.15
8455.0  88.08
8460.0  88.09
8465.0  88.01
8470.0  88.09
8475.0  88.09
8480.0  88.13
8485.0  88.25
8490.0  88.02
8495.0  88.16
8500.0  88.13
8505.0  88.13
8510.0  88.00
8515.0  88.01
8520.0  88.18
8525.0  88.01
8530.0  88.18
8535.0  88.08
8540.0  88.06
8545.0  88.12
8550.0  88.04
8555.0  88.17
8560.0  88.12
8565.0  88.18
8570.0  88.24
8575.0  88.10
8580.0  88.19
8585.0  88.14
8590.0  88.11
8595.0  88.23
8600.0  88.16
8605.0  88.11
8610.0  88.11
8615.0  88.07
8620.0  88.08
8625.0  88.06
8630.0  88.29
8635.0  88.09
8640.0  88.23
8645.0  88.04
8650.0  88.07
8655.0  88.11
8660.0  87.92
8665.0  88.18
8670.0  88.12
8675.0  88.12
8680.0  88.19
8685.0  88.06
8690.0  88.25
8695.0  88.03
8700.0  88.06
8705.0  88.07
8710.0  88.05
8715.0  88.11
8720.0  88.19
8725.0  88.16
8730.0  88.12
8735.0  88.13
8740.0  88.16
8745.0  88.06
8750.0  88.04
8755.0  88.02
8760.0  88.15
8765.0  88.16
8770.0  88.18
8775.0  88.16
8780.0  88.12
8785.0  88.14
8790.0  88.12
8795.0  88.12
8800.0  87.88
8805.0  88.11
8810.0  87.96
8815.0  88.15
8820.0  88.05
8825.0  88.09
8830.0  87.90
8835.0  88.16
8840.0  88.00
8845.0  88.05
8850.0  88.34
8855.0  88.10
8860.0  88.02
8865.0  88.11
8870.0  87.99
8875.0  88.12
8880.0  88.17
8885.0  88.16
8890.0  88.15
8895.0  88.10
8900.0  87.95
8905.0  88.00
8910.0  88.23
8915.0  88.30
8920.0  88.15
8925.0  88.15
8930.0  88.13
8935.0  87.99
8940.0  88.08
8945.0  88.05
8950.0  88.24
8955.0  88.15
8960.0  88.01
8965.0  88.08
8970.0  88.03
8975.0  88.10
8980.0  88.01
8985.0  88.11
8990.0  88.07
8995.0  87.91
9000.0  88.11
9005.0  87.99
9010.0  88.04
9015.0  87.98
9020.0  88.11
9025.0  88.04
9030.0  87.98
9035.0  87.95
9040.0  88.09
9045.0  87.97
9050.0  88.12
9055.0  88.04
9060.0  87.98
9065.0  88.30
9070.0  88.34
