# Filter #135, 458_66
# Measured with pinhole and grism #7 on ALFOSC
# March 14, 2012 by Fatemeh Kiaeerad
# Transmittance calculated and wavelength calibrated
# by Andreas Sandberg (sandberg@astro.su.se)

3750.252	0.00206
3751.593	0.00593
3752.935	-0.00086
3754.276	-0.00223
3755.618	-0.00556
3756.960	0.00451
3758.302	0.00051
3759.644	0.00016
3760.987	0.00276
3762.330	0.00468
3763.672	0.00410
3765.015	0.00132
3766.358	0.00394
3767.702	-0.00463
3769.045	0.00077
3770.389	-0.00022
3771.732	0.00366
3773.076	0.00239
3774.421	-0.00192
3775.765	-0.00052
3777.109	-0.00197
3778.454	-0.00295
3779.799	0.00716
3781.143	0.00174
3782.489	0.00324
3783.834	0.00518
3785.179	0.00291
3786.525	-0.00070
3787.870	0.00083
3789.216	0.00471
3790.562	0.00489
3791.909	-0.00239
3793.255	-0.00075
3794.602	0.00143
3795.948	0.00025
3797.295	0.00079
3798.642	0.00152
3799.989	0.00463
3801.337	0.00201
3802.684	0.00183
3804.032	0.00191
3805.380	-0.00100
3806.728	0.00138
3808.076	0.00068
3809.425	0.00213
3810.773	0.00011
3812.122	0.00549
3813.471	0.00349
3814.820	0.00293
3816.169	-0.00008
3817.518	-0.00074
3818.868	-0.00150
3820.217	0.00300
3821.567	0.00199
3822.917	-0.00213
3824.267	0.00311
3825.618	-0.00044
3826.968	0.00060
3828.319	0.00133
3829.670	0.00032
3831.021	0.00153
3832.372	0.00025
3833.723	-0.00020
3835.074	-0.00085
3836.426	0.00058
3837.778	-0.00119
3839.130	-0.00210
3840.482	0.00103
3841.834	-0.00081
3843.187	0.00373
3844.539	-0.00012
3845.892	0.00162
3847.245	-0.00027
3848.598	-0.00134
3849.951	0.00229
3851.305	0.00103
3852.658	0.00495
3854.012	0.00175
3855.366	-0.00135
3856.720	0.00372
3858.075	0.00026
3859.429	0.00325
3860.784	0.00362
3862.138	0.00504
3863.493	-0.00125
3864.848	0.00181
3866.204	0.00249
3867.559	0.00454
3868.915	0.00135
3870.270	0.00038
3871.626	0.00008
3872.982	0.00231
3874.338	0.00346
3875.695	0.00087
3877.051	-0.00218
3878.408	0.00052
3879.765	0.00268
3881.122	0.00489
3882.479	-0.00081
3883.837	0.00211
3885.194	-0.00103
3886.552	-0.00156
3887.910	0.00458
3889.268	-0.00088
3890.626	0.00205
3891.984	0.00088
3893.343	0.00152
3894.701	0.00092
3896.060	0.00034
3897.419	0.00184
3898.779	0.00232
3900.138	0.00187
3901.497	0.00173
3902.857	0.00260
3904.217	0.00066
3905.577	0.00043
3906.937	0.00024
3908.297	0.00301
3909.658	0.00031
3911.018	0.00380
3912.379	0.00137
3913.740	0.00223
3915.101	-0.00002
3916.463	-0.00076
3917.824	0.00154
3919.186	0.00006
3920.548	0.00308
3921.910	0.00116
3923.272	0.00017
3924.634	0.00203
3925.996	0.00116
3927.359	-0.00044
3928.722	-0.00107
3930.085	0.00113
3931.448	0.00211
3932.811	-0.00037
3934.175	0.00218
3935.538	0.00224
3936.902	-0.00028
3938.266	-0.00001
3939.630	0.00010
3940.994	0.00010
3942.359	0.00067
3943.723	-0.00037
3945.088	-0.00081
3946.453	0.00255
3947.818	0.00064
3949.183	0.00185
3950.549	-0.00054
3951.914	0.00301
3953.280	0.00143
3954.646	0.00023
3956.012	-0.00097
3957.378	-0.00026
3958.745	0.00181
3960.111	0.00040
3961.478	0.00158
3962.845	0.00051
3964.212	0.00110
3965.579	-0.00063
3966.946	0.00094
3968.314	0.00132
3969.682	0.00177
3971.049	0.00102
3972.417	-0.00139
3973.786	-0.00069
3975.154	0.00084
3976.523	0.00029
3977.891	0.00055
3979.260	0.00259
3980.629	0.00256
3981.998	0.00051
3983.368	-0.00062
3984.737	-0.00038
3986.107	0.00312
3987.477	-0.00035
3988.847	0.00238
3990.217	0.00213
3991.587	0.00012
3992.958	0.00138
3994.328	0.00054
3995.699	-0.00048
3997.070	-0.00030
3998.441	0.00136
3999.812	0.00277
4001.184	0.00100
4002.556	0.00061
4003.927	0.00073
4005.299	0.00105
4006.671	-0.00040
4008.044	0.00038
4009.416	0.00183
4010.789	0.00266
4012.162	0.00082
4013.535	-0.00059
4014.908	0.00113
4016.281	0.00152
4017.654	0.00015
4019.028	0.00039
4020.402	0.00074
4021.776	-0.00001
4023.150	-0.00043
4024.524	0.00108
4025.898	0.00010
4027.273	0.00073
4028.648	0.00180
4030.023	0.00060
4031.398	0.00070
4032.773	-0.00061
4034.148	0.00123
4035.524	0.00036
4036.900	0.00110
4038.276	-0.00019
4039.652	0.00063
4041.028	0.00008
4042.404	0.00051
4043.781	0.00049
4045.158	0.00038
4046.534	-0.00028
4047.911	0.00080
4049.289	0.00015
4050.666	0.00060
4052.044	0.00064
4053.421	0.00031
4054.799	0.00098
4056.177	0.00035
4057.555	-0.00038
4058.934	0.00107
4060.312	0.00183
4061.691	-0.00066
4063.070	0.00093
4064.449	0.00123
4065.828	0.00123
4067.207	0.00072
4068.587	-0.00017
4069.966	0.00167
4071.346	0.00000
4072.726	0.00115
4074.106	0.00025
4075.487	-0.00026
4076.867	0.00074
4078.248	0.00062
4079.629	0.00145
4081.010	-0.00010
4082.391	0.00122
4083.772	-0.00090
4085.154	0.00090
4086.535	0.00063
4087.917	-0.00059
4089.299	-0.00005
4090.681	-0.00072
4092.063	0.00153
4093.446	0.00066
4094.828	0.00040
4096.211	-0.00002
4097.594	0.00067
4098.977	-0.00003
4100.361	-0.00025
4101.744	0.00089
4103.128	0.00073
4104.511	0.00074
4105.895	0.00044
4107.279	-0.00024
4108.664	-0.00055
4110.048	-0.00026
4111.433	0.00231
4112.817	0.00093
4114.202	0.00015
4115.587	0.00067
4116.973	0.00012
4118.358	0.00096
4119.744	0.00060
4121.129	0.00000
4122.515	0.00062
4123.901	0.00073
4125.288	0.00066
4126.674	0.00054
4128.060	0.00024
4129.447	-0.00022
4130.834	-0.00008
4132.221	0.00033
4133.608	0.00133
4134.996	0.00157
4136.383	0.00095
4137.771	0.00095
4139.159	0.00035
4140.547	0.00038
4141.935	-0.00012
4143.323	0.00048
4144.712	-0.00010
4146.101	0.00022
4147.489	-0.00046
4148.878	0.00068
4150.268	-0.00023
4151.657	0.00075
4153.046	0.00021
4154.436	0.00129
4155.826	0.00180
4157.216	0.00184
4158.606	0.00045
4159.996	0.00040
4161.387	0.00012
4162.778	0.00132
4164.168	0.00091
4165.559	0.00133
4166.951	0.00084
4168.342	0.00117
4169.733	0.00117
4171.125	0.00072
4172.517	0.00039
4173.909	0.00043
4175.301	0.00071
4176.693	0.00059
4178.086	0.00133
4179.478	0.00098
4180.871	0.00059
4182.264	0.00039
4183.657	0.00074
4185.050	0.00148
4186.444	0.00101
4187.837	0.00134
4189.231	0.00067
4190.625	0.00189
4192.019	0.00110
4193.413	0.00113
4194.808	0.00174
4196.202	0.00249
4197.597	0.00237
4198.992	0.00221
4200.387	0.00270
4201.782	0.00286
4203.178	0.00253
4204.573	0.00299
4205.969	0.00269
4207.365	0.00355
4208.761	0.00425
4210.157	0.00559
4211.554	0.00659
4212.950	0.00758
4214.347	0.00765
4215.744	0.00899
4217.141	0.00855
4218.538	0.01088
4219.935	0.01255
4221.333	0.01423
4222.731	0.01486
4224.128	0.01698
4225.526	0.02043
4226.925	0.02397
4228.323	0.02765
4229.722	0.03188
4231.120	0.03404
4232.519	0.03796
4233.918	0.04674
4235.317	0.05215
4236.717	0.05825
4238.116	0.06943
4239.516	0.07408
4240.916	0.08689
4242.316	0.09773
4243.716	0.10815
4245.116	0.12316
4246.517	0.13598
4247.917	0.15720
4249.318	0.17274
4250.719	0.18978
4252.120	0.20617
4253.521	0.23051
4254.923	0.25939
4256.325	0.27627
4257.726	0.30339
4259.128	0.32627
4260.530	0.34573
4261.933	0.37024
4263.335	0.40013
4264.738	0.42009
4266.141	0.44262
4267.544	0.45918
4268.947	0.48545
4270.350	0.51381
4271.753	0.52220
4273.157	0.54486
4274.561	0.56799
4275.965	0.58175
4277.369	0.58817
4278.773	0.61016
4280.177	0.62575
4281.582	0.63655
4282.987	0.65218
4284.392	0.65577
4285.797	0.66989
4287.202	0.68195
4288.607	0.69175
4290.013	0.69822
4291.419	0.70499
4292.825	0.71404
4294.231	0.72202
4295.637	0.73069
4297.043	0.73060
4298.450	0.73589
4299.856	0.74174
4301.263	0.74731
4302.670	0.75118
4304.078	0.76058
4305.485	0.77018
4306.893	0.76814
4308.300	0.77960
4309.708	0.77686
4311.116	0.77566
4312.524	0.78232
4313.933	0.78754
4315.341	0.78912
4316.750	0.78711
4318.159	0.79468
4319.568	0.79804
4320.977	0.79253
4322.386	0.79586
4323.796	0.79771
4325.205	0.80173
4326.615	0.80203
4328.025	0.80040
4329.435	0.80052
4330.846	0.80682
4332.256	0.80010
4333.667	0.79990
4335.078	0.80112
4336.489	0.80454
4337.900	0.80911
4339.311	0.79940
4340.723	0.80184
4342.134	0.80702
4343.546	0.80189
4344.958	0.80726
4346.370	0.79947
4347.782	0.80092
4349.195	0.80449
4350.607	0.79680
4352.020	0.80191
4353.433	0.79339
4354.846	0.79386
4356.260	0.80346
4357.673	0.80216
4359.087	0.79271
4360.500	0.79600
4361.914	0.79612
4363.328	0.78919
4364.743	0.79519
4366.157	0.79359
4367.572	0.79586
4368.986	0.79503
4370.401	0.79417
4371.816	0.80348
4373.232	0.79575
4374.647	0.80446
4376.063	0.79252
4377.478	0.80796
4378.894	0.80627
4380.310	0.79809
4381.726	0.79823
4383.143	0.80969
4384.559	0.80358
4385.976	0.79960
4387.393	0.79941
4388.810	0.80290
4390.227	0.80451
4391.645	0.80586
4393.062	0.80206
4394.480	0.80537
4395.898	0.80169
4397.316	0.79945
4398.734	0.79785
4400.152	0.80452
4401.571	0.79861
4402.989	0.80657
4404.408	0.80319
4405.827	0.80204
4407.246	0.80101
4408.666	0.80199
4410.085	0.80201
4411.505	0.80599
4412.925	0.79841
4414.345	0.80416
4415.765	0.80411
4417.185	0.80679
4418.606	0.80975
4420.026	0.80592
4421.447	0.80048
4422.868	0.81561
4424.289	0.81458
4425.711	0.80707
4427.132	0.80841
4428.554	0.80814
4429.976	0.80973
4431.398	0.82112
4432.820	0.81570
4434.242	0.81990
4435.664	0.82502
4437.087	0.82594
4438.510	0.82524
4439.933	0.83377
4441.356	0.82358
4442.779	0.82830
4444.203	0.82701
4445.626	0.82724
4447.050	0.84034
4448.474	0.83835
4449.898	0.83934
4451.322	0.84222
4452.747	0.84362
4454.171	0.84912
4455.596	0.85329
4457.021	0.85282
4458.446	0.85225
4459.871	0.84935
4461.297	0.85611
4462.722	0.85886
4464.148	0.85217
4465.574	0.85897
4467.000	0.85734
4468.426	0.85632
4469.852	0.86390
4471.279	0.86336
4472.706	0.86569
4474.133	0.85902
4475.560	0.85839
4476.987	0.86197
4478.414	0.86011
4479.842	0.86385
4481.269	0.86179
4482.697	0.86058
4484.125	0.85845
4485.553	0.85804
4486.982	0.86235
4488.410	0.85724
4489.839	0.86237
4491.268	0.86222
4492.697	0.86315
4494.126	0.85486
4495.555	0.85351
4496.985	0.85540
4498.415	0.85000
4499.844	0.84963
4501.274	0.84673
4502.705	0.84917
4504.135	0.84127
4505.565	0.84566
4506.996	0.84650
4508.427	0.84180
4509.858	0.83874
4511.289	0.84114
4512.720	0.84460
4514.152	0.84758
4515.583	0.84398
4517.015	0.84038
4518.447	0.84752
4519.879	0.83615
4521.312	0.84127
4522.744	0.84522
4524.177	0.83934
4525.609	0.84189
4527.042	0.84771
4528.475	0.84374
4529.909	0.84756
4531.342	0.84409
4532.776	0.84843
4534.209	0.84199
4535.643	0.84691
4537.077	0.85154
4538.512	0.84696
4539.946	0.84599
4541.381	0.84648
4542.815	0.85603
4544.250	0.85354
4545.685	0.85274
4547.121	0.85924
4548.556	0.85498
4549.992	0.85929
4551.427	0.85782
4552.863	0.85544
4554.299	0.86178
4555.736	0.86116
4557.172	0.86580
4558.609	0.86088
4560.045	0.86837
4561.482	0.87107
4562.919	0.87421
4564.356	0.87346
4565.794	0.87365
4567.231	0.86889
4568.669	0.87506
4570.107	0.87147
4571.545	0.87635
4572.983	0.87730
4574.421	0.87439
4575.860	0.87973
4577.299	0.88370
4578.737	0.88321
4580.176	0.89079
4581.616	0.88843
4583.055	0.87929
4584.494	0.88107
4585.934	0.88582
4587.374	0.88591
4588.814	0.88568
4590.254	0.89099
4591.694	0.88538
4593.135	0.88979
4594.576	0.89108
4596.016	0.89070
4597.457	0.89514
4598.898	0.89401
4600.340	0.89503
4601.781	0.88975
4603.223	0.88712
4604.665	0.88523
4606.107	0.88887
4607.549	0.89598
4608.991	0.88733
4610.433	0.88984
4611.876	0.88786
4613.319	0.88959
4614.762	0.88506
4616.205	0.88848
4617.648	0.88401
4619.092	0.88092
4620.535	0.88674
4621.979	0.87881
4623.423	0.88110
4624.867	0.87684
4626.311	0.87635
4627.756	0.87793
4629.200	0.87572
4630.645	0.87465
4632.090	0.87453
4633.535	0.88057
4634.980	0.87798
4636.426	0.87640
4637.871	0.86987
4639.317	0.87246
4640.763	0.87319
4642.209	0.86552
4643.655	0.87026
4645.102	0.86409
4646.548	0.86747
4647.995	0.86452
4649.442	0.86303
4650.889	0.86210
4652.336	0.86058
4653.783	0.86520
4655.231	0.85666
4656.678	0.86371
4658.126	0.85223
4659.574	0.85861
4661.023	0.86241
4662.471	0.85698
4663.919	0.85717
4665.368	0.85827
4666.817	0.85706
4668.266	0.86017
4669.715	0.86027
4671.164	0.85580
4672.614	0.85599
4674.064	0.85816
4675.513	0.85728
4676.963	0.86000
4678.414	0.85671
4679.864	0.85775
4681.314	0.86047
4682.765	0.86019
4684.216	0.86606
4685.667	0.86363
4687.118	0.86286
4688.569	0.86513
4690.021	0.86763
4691.472	0.86740
4692.924	0.86992
4694.376	0.87114
4695.828	0.87367
4697.281	0.87830
4698.733	0.86720
4700.186	0.87476
4701.638	0.88005
4703.091	0.88333
4704.544	0.88099
4705.998	0.87967
4707.451	0.87695
4708.905	0.88388
4710.359	0.88156
4711.812	0.87749
4713.267	0.88742
4714.721	0.88576
4716.175	0.88583
4717.630	0.88701
4719.085	0.89061
4720.539	0.89345
4721.995	0.89371
4723.450	0.88956
4724.905	0.89160
4726.361	0.89270
4727.816	0.89536
4729.272	0.89794
4730.728	0.89646
4732.185	0.89267
4733.641	0.89207
4735.098	0.90018
4736.554	0.89596
4738.011	0.90026
4739.468	0.89661
4740.925	0.89780
4742.383	0.89870
4743.840	0.90360
4745.298	0.89959
4746.756	0.89697
4748.214	0.89795
4749.672	0.89130
4751.130	0.89842
4752.589	0.89858
4754.048	0.89775
4755.506	0.89734
4756.965	0.89109
4758.425	0.88754
4759.884	0.89540
4761.343	0.89221
4762.803	0.89601
4764.263	0.89779
4765.723	0.89449
4767.183	0.88636
4768.643	0.89106
4770.104	0.88858
4771.565	0.88619
4773.025	0.88501
4774.486	0.88585
4775.947	0.88737
4777.409	0.88341
4778.870	0.88609
4780.332	0.88872
4781.794	0.88031
4783.256	0.88620
4784.718	0.88401
4786.180	0.88401
4787.643	0.87935
4789.105	0.87844
4790.568	0.88070
4792.031	0.87721
4793.494	0.88147
4794.957	0.87789
4796.421	0.87901
4797.884	0.87315
4799.348	0.87426
4800.812	0.87851
4802.276	0.87566
4803.740	0.87341
4805.205	0.86960
4806.669	0.87340
4808.134	0.86751
4809.599	0.86882
4811.064	0.86767
4812.529	0.86853
4813.995	0.87374
4815.460	0.86753
4816.926	0.87047
4818.392	0.86976
4819.858	0.86903
4821.324	0.86834
4822.790	0.86846
4824.257	0.86814
4825.724	0.87211
4827.191	0.87123
4828.658	0.87447
4830.125	0.87002
4831.592	0.87674
4833.060	0.87202
4834.527	0.87582
4835.995	0.87016
4837.463	0.87265
4838.932	0.87496
4840.400	0.87482
4841.868	0.87461
4843.337	0.87356
4844.806	0.87541
4846.275	0.87602
4847.744	0.87803
4849.213	0.87587
4850.683	0.87766
4852.153	0.88205
4853.622	0.87887
4855.092	0.87596
4856.563	0.87466
4858.033	0.87315
4859.503	0.87788
4860.974	0.88145
4862.445	0.87785
4863.916	0.87294
4865.387	0.87613
4866.858	0.87442
4868.330	0.87012
4869.801	0.86961
4871.273	0.86788
4872.745	0.86709
4874.217	0.86300
4875.690	0.86533
4877.162	0.86613
4878.635	0.86040
4880.107	0.85345
4881.580	0.85963
4883.053	0.85096
4884.527	0.85018
4886.000	0.85118
4887.474	0.84830
4888.947	0.84776
4890.421	0.84947
4891.895	0.85117
4893.370	0.84944
4894.844	0.85074
4896.319	0.84931
4897.793	0.84939
4899.268	0.84942
4900.743	0.85486
4902.219	0.85083
4903.694	0.84607
4905.170	0.83949
4906.645	0.83480
4908.121	0.82819
4909.597	0.81483
4911.074	0.79641
4912.550	0.77153
4914.027	0.74637
4915.503	0.71842
4916.980	0.68146
4918.457	0.63884
4919.934	0.59982
4921.412	0.55142
4922.889	0.50848
4924.367	0.46125
4925.845	0.41461
4927.323	0.36911
4928.801	0.32552
4930.279	0.28648
4931.758	0.25021
4933.237	0.21550
4934.715	0.18763
4936.194	0.15952
4937.674	0.13845
4939.153	0.11841
4940.632	0.10063
4942.112	0.08648
4943.592	0.07376
4945.072	0.06399
4946.552	0.05458
4948.032	0.04656
4949.513	0.04120
4950.993	0.03500
4952.474	0.03048
4953.955	0.02603
4955.436	0.02233
4956.918	0.01955
4958.399	0.01694
4959.881	0.01517
4961.363	0.01349
4962.845	0.01140
4964.327	0.01042
4965.809	0.00906
4967.291	0.00774
4968.774	0.00712
4970.257	0.00613
4971.740	0.00539
4973.223	0.00506
4974.706	0.00454
4976.190	0.00395
4977.673	0.00352
4979.157	0.00304
4980.641	0.00306
4982.125	0.00276
4983.609	0.00238
4985.094	0.00182
4986.578	0.00177
4988.063	0.00168
4989.548	0.00161
4991.033	0.00153
4992.518	0.00140
4994.004	0.00137
4995.489	0.00103
4996.975	0.00101
4998.461	0.00097
4999.947	0.00093
5001.433	0.00082
5002.919	0.00076
5004.406	0.00067
5005.893	0.00066
5007.380	0.00073
5008.867	0.00051
5010.354	0.00057
5011.841	0.00055
5013.329	0.00041
5014.816	0.00033
5016.304	0.00043
5017.792	0.00037
5019.280	0.00034
5020.769	0.00051
5022.257	0.00029
5023.746	0.00054
5025.235	0.00031
5026.724	0.00020
5028.213	0.00040
5029.702	0.00026
5031.192	0.00014
5032.681	0.00018
5034.171	0.00018
5035.661	0.00040
5037.151	0.00004
5038.642	0.00018
5040.132	0.00030
5041.623	0.00024
5043.114	0.00022
5044.605	0.00027
5046.096	0.00030
5047.587	0.00025
5049.079	0.00014
5050.570	0.00025
5052.062	0.00015
5053.554	0.00033
5055.046	0.00024
5056.538	0.00026
5058.031	0.00029
5059.523	0.00013
5061.016	0.00024
5062.509	0.00021
5064.002	0.00033
5065.496	0.00009
5066.989	0.00029
5068.483	0.00014
5069.976	0.00013
5071.470	0.00013
5072.964	0.00018
5074.459	0.00012
5075.953	0.00017
5077.448	0.00012
5078.942	0.00020
5080.437	0.00008
5081.932	0.00016
5083.428	0.00016
5084.923	0.00020
5086.419	0.00012
5087.914	0.00012
5089.410	0.00022
5090.906	0.00017
5092.402	0.00019
5093.899	0.00004
5095.395	0.00010
5096.892	0.00004
5098.389	0.00010
5099.886	0.00028
5101.383	0.00013
5102.881	0.00015
5104.378	0.00010
5105.876	0.00009
5107.374	0.00012
5108.872	0.00015
5110.370	0.00001
5111.868	0.00011
5113.367	0.00007
5114.865	0.00025
5116.364	0.00002
5117.863	0.00009
5119.362	0.00011
5120.862	0.00003
5122.361	0.00005
5123.861	0.00005
5125.361	0.00013
5126.861	0.00006
5128.361	0.00006
5129.861	0.00013
5131.362	0.00013
5132.862	0.00007
5134.363	0.00009
5135.864	0.00015
5137.365	0.00006
5138.867	0.00004
5140.368	0.00003
5141.870	0.00014
5143.371	0.00005
5144.873	0.00001
5146.375	0.00005
5147.878	0.00013
5149.380	0.00003
5150.883	0.00012
5152.386	-0.00000
5153.889	0.00013
5155.392	0.00023
5156.895	0.00008
5158.398	-0.00001
5159.902	0.00005
5161.406	0.00021
5162.910	0.00013
5164.414	0.00001
5165.918	0.00014
5167.422	-0.00003
5168.927	-0.00003
5170.432	0.00010
5171.937	0.00004
5173.442	0.00017
5174.947	0.00006
5176.452	-0.00005
5177.958	0.00003
5179.464	0.00015
5180.970	0.00014
5182.476	0.00004
5183.982	0.00002
5185.488	0.00014
5186.995	0.00005
5188.501	0.00010
5190.008	0.00020
5191.515	0.00014
5193.023	0.00005
5194.530	0.00000
5196.037	0.00013
5197.545	0.00014
5199.053	-0.00000
5200.561	0.00010
5202.069	0.00005
5203.578	0.00006
5205.086	0.00012
5206.595	0.00004
5208.104	0.00006
5209.613	0.00021
5211.122	-0.00001
5212.631	0.00006
5214.141	0.00009
5215.650	-0.00002
5217.160	0.00010
5218.670	0.00003
5220.180	0.00001
5221.691	0.00010
5223.201	0.00007
5224.712	0.00005
5226.222	0.00008
5227.733	0.00012
5229.245	0.00007
5230.756	-0.00004
5232.267	0.00010
5233.779	-0.00001
5235.291	0.00005
