#Filter #137, 410_7
#Measured with pinhole and grism 6 on ALFOSC
#July 24, 2014 by Tapio Pursimo
#Transmittance calculated and wavelength calibrated
#by Andreas Sandberg (sandberg@astro.su.se)

3463.693	0.00029
3465.010	-0.00044
3466.328	0.00078
3467.647	0.00020
3468.965	0.00023
3470.283	0.00044
3471.602	-0.00035
3472.921	-0.00201
3474.240	-0.00034
3475.560	0.00117
3476.880	0.00109
3478.200	0.00148
3479.520	-0.00042
3480.840	-0.00050
3482.161	0.00065
3483.481	-0.00040
3484.802	-0.00072
3486.124	-0.00034
3487.445	-0.00006
3488.767	0.00033
3490.089	-0.00285
3491.411	0.00076
3492.733	-0.00106
3494.056	-0.00052
3495.379	-0.00223
3496.702	0.00092
3498.025	-0.00069
3499.348	0.00003
3500.672	0.00163
3501.996	0.00030
3503.320	-0.00183
3504.644	-0.00061
3505.969	-0.00129
3507.294	-0.00068
3508.619	-0.00119
3509.944	-0.00203
3511.269	-0.00000
3512.595	-0.00143
3513.921	-0.00143
3515.247	0.00031
3516.574	0.00059
3517.900	-0.00240
3519.227	-0.00008
3520.554	0.00079
3521.881	0.00071
3523.209	-0.00084
3524.536	-0.00188
3525.864	0.00037
3527.192	-0.00000
3528.521	0.00147
3529.849	-0.00150
3531.178	-0.00045
3532.507	-0.00111
3533.836	-0.00146
3535.166	-0.00037
3536.496	0.00059
3537.825	0.00015
3539.156	-0.00047
3540.486	-0.00113
3541.816	0.00097
3543.147	-0.00128
3544.478	-0.00114
3545.810	-0.00126
3547.141	-0.00078
3548.473	-0.00027
3549.805	0.00032
3551.137	-0.00127
3552.469	0.00148
3553.802	0.00124
3555.134	0.00074
3556.467	-0.00026
3557.801	0.00147
3559.134	-0.00074
3560.468	-0.00209
3561.802	-0.00120
3563.136	0.00014
3564.470	-0.00085
3565.805	-0.00256
3567.140	0.00063
3568.475	0.00125
3569.810	0.00055
3571.145	-0.00040
3572.481	0.00162
3573.817	-0.00049
3575.153	-0.00064
3576.489	-0.00069
3577.826	-0.00030
3579.163	-0.00021
3580.500	-0.00019
3581.837	-0.00042
3583.175	0.00089
3584.512	-0.00060
3585.850	-0.00279
3587.188	0.00158
3588.527	0.00016
3589.865	0.00030
3591.204	-0.00139
3592.543	-0.00149
3593.882	0.00005
3595.222	-0.00146
3596.561	0.00083
3597.901	-0.00117
3599.242	0.00059
3600.582	-0.00037
3601.922	-0.00041
3603.263	-0.00165
3604.604	-0.00149
3605.946	0.00142
3607.287	-0.00039
3608.629	-0.00043
3609.971	-0.00057
3611.313	-0.00050
3612.655	-0.00005
3613.998	-0.00088
3615.340	-0.00005
3616.684	-0.00043
3618.027	-0.00082
3619.370	-0.00025
3620.714	0.00074
3622.058	-0.00137
3623.402	0.00088
3624.746	0.00025
3626.091	-0.00016
3627.436	0.00082
3628.781	-0.00059
3630.126	-0.00181
3631.471	-0.00062
3632.817	0.00215
3634.163	-0.00103
3635.509	0.00080
3636.856	-0.00016
3638.202	-0.00045
3639.549	-0.00038
3640.896	-0.00070
3642.243	-0.00230
3643.591	-0.00000
3644.938	0.00132
3646.286	0.00042
3647.634	0.00034
3648.983	-0.00119
3650.331	-0.00027
3651.680	0.00027
3653.029	0.00040
3654.378	0.00100
3655.728	-0.00013
3657.078	0.00017
3658.427	-0.00039
3659.778	-0.00167
3661.128	-0.00115
3662.479	-0.00011
3663.829	-0.00046
3665.180	-0.00011
3666.532	0.00060
3667.883	0.00054
3669.235	-0.00073
3670.587	-0.00002
3671.939	0.00053
3673.291	0.00033
3674.644	-0.00030
3675.997	0.00013
3677.350	0.00048
3678.703	-0.00114
3680.056	0.00032
3681.410	-0.00042
3682.764	-0.00061
3684.118	-0.00145
3685.472	-0.00252
3686.827	0.00196
3688.182	-0.00211
3689.537	0.00132
3690.892	-0.00056
3692.248	-0.00019
3693.603	-0.00068
3694.959	-0.00016
3696.315	-0.00106
3697.672	0.00047
3699.028	0.00014
3700.385	0.00056
3701.742	-0.00002
3703.099	0.00038
3704.457	0.00075
3705.815	-0.00049
3707.172	-0.00062
3708.531	-0.00062
3709.889	0.00012
3711.248	0.00045
3712.606	-0.00012
3713.965	-0.00052
3715.325	-0.00024
3716.684	-0.00002
3718.044	0.00035
3719.404	0.00016
3720.764	0.00008
3722.124	0.00074
3723.485	0.00068
3724.846	-0.00015
3726.207	-0.00075
3727.568	0.00123
3728.929	-0.00006
3730.291	-0.00079
3731.653	-0.00145
3733.015	0.00143
3734.377	0.00056
3735.740	-0.00000
3737.103	-0.00054
3738.466	-0.00116
3739.829	-0.00109
3741.193	-0.00067
3742.556	0.00076
3743.920	0.00118
3745.284	-0.00151
3746.649	0.00013
3748.013	0.00020
3749.378	0.00159
3750.743	0.00039
3752.108	-0.00069
3753.474	-0.00045
3754.840	-0.00026
3756.205	0.00013
3757.572	0.00028
3758.938	-0.00081
3760.305	-0.00094
3761.671	0.00205
3763.038	0.00083
3764.406	-0.00117
3765.773	0.00182
3767.141	0.00108
3768.509	-0.00046
3769.877	0.00046
3771.245	0.00034
3772.614	0.00053
3773.983	-0.00067
3775.352	-0.00099
3776.721	-0.00075
3778.090	0.00024
3779.460	-0.00062
3780.830	-0.00088
3782.200	0.00127
3783.570	-0.00110
3784.941	0.00050
3786.312	-0.00017
3787.683	0.00051
3789.054	0.00092
3790.426	-0.00046
3791.797	0.00035
3793.169	0.00005
3794.541	0.00018
3795.914	0.00072
3797.286	0.00064
3798.659	-0.00139
3800.032	-0.00013
3801.405	-0.00087
3802.779	0.00064
3804.153	0.00215
3805.527	-0.00030
3806.901	-0.00041
3808.275	-0.00036
3809.650	-0.00039
3811.024	0.00022
3812.399	-0.00007
3813.775	0.00010
3815.150	-0.00058
3816.526	-0.00084
3817.902	0.00071
3819.278	-0.00076
3820.654	0.00060
3822.031	-0.00161
3823.408	-0.00148
3824.785	0.00018
3826.162	0.00144
3827.539	0.00022
3828.917	-0.00054
3830.295	0.00031
3831.673	0.00037
3833.052	0.00040
3834.430	0.00032
3835.809	-0.00126
3837.188	-0.00048
3838.567	-0.00051
3839.947	-0.00018
3841.326	0.00028
3842.706	-0.00014
3844.086	-0.00030
3845.467	0.00025
3846.847	-0.00005
3848.228	0.00012
3849.609	-0.00145
3850.991	0.00100
3852.372	-0.00008
3853.754	-0.00045
3855.136	-0.00056
3856.518	-0.00014
3857.900	0.00015
3859.283	-0.00003
3860.666	0.00061
3862.049	-0.00073
3863.432	-0.00073
3864.815	-0.00065
3866.199	-0.00017
3867.583	-0.00085
3868.967	0.00062
3870.351	0.00057
3871.736	-0.00083
3873.121	-0.00079
3874.506	0.00027
3875.891	0.00024
3877.277	0.00054
3878.662	0.00021
3880.048	-0.00019
3881.434	0.00006
3882.821	-0.00058
3884.207	-0.00028
3885.594	-0.00059
3886.981	0.00028
3888.368	0.00009
3889.756	0.00050
3891.144	0.00049
3892.532	0.00104
3893.920	-0.00027
3895.308	0.00063
3896.697	0.00020
3898.085	-0.00098
3899.474	0.00014
3900.864	-0.00072
3902.253	-0.00090
3903.643	0.00006
3905.033	0.00035
3906.423	0.00049
3907.813	-0.00061
3909.204	-0.00027
3910.595	-0.00131
3911.986	0.00041
3913.377	0.00015
3914.769	0.00022
3916.160	0.00046
3917.552	-0.00000
3918.944	0.00016
3920.337	0.00028
3921.729	-0.00034
3923.122	-0.00039
3924.515	-0.00075
3925.908	-0.00079
3927.302	-0.00013
3928.696	-0.00028
3930.089	-0.00076
3931.484	-0.00096
3932.878	-0.00081
3934.273	0.00101
3935.667	-0.00052
3937.062	-0.00089
3938.458	-0.00009
3939.853	-0.00130
3941.249	-0.00064
3942.645	-0.00077
3944.041	-0.00022
3945.437	0.00007
3946.834	0.00105
3948.231	0.00023
3949.628	0.00028
3951.025	0.00036
3952.422	-0.00049
3953.820	0.00028
3955.218	0.00157
3956.616	-0.00049
3958.015	0.00024
3959.413	-0.00025
3960.812	0.00044
3962.211	0.00074
3963.610	-0.00020
3965.010	0.00118
3966.410	-0.00022
3967.809	0.00043
3969.210	-0.00077
3970.610	-0.00009
3972.011	0.00027
3973.411	0.00012
3974.812	0.00116
3976.214	0.00027
3977.615	0.00077
3979.017	-0.00013
3980.419	-0.00019
3981.821	0.00077
3983.223	0.00017
3984.626	0.00056
3986.029	0.00048
3987.432	0.00045
3988.835	0.00110
3990.238	-0.00000
3991.642	0.00042
3993.046	0.00017
3994.450	-0.00040
3995.855	-0.00060
3997.259	-0.00060
3998.664	-0.00017
4000.069	-0.00107
4001.474	0.00141
4002.880	-0.00103
4004.286	0.00017
4005.691	0.00053
4007.098	0.00070
4008.504	0.00067
4009.911	0.00026
4011.317	0.00085
4012.724	0.00013
4014.132	0.00056
4015.539	-0.00009
4016.947	-0.00027
4018.355	0.00054
4019.763	-0.00025
4021.171	0.00088
4022.580	-0.00001
4023.989	0.00072
4025.398	0.00067
4026.807	0.00079
4028.216	0.00072
4029.626	0.00041
4031.036	0.00053
4032.446	0.00123
4033.857	0.00011
4035.267	0.00091
4036.678	0.00222
4038.089	0.00046
4039.500	0.00077
4040.912	0.00091
4042.324	0.00105
4043.735	0.00177
4045.148	0.00234
4046.560	0.00309
4047.973	0.00372
4049.385	0.00530
4050.798	0.00627
4052.212	0.00783
4053.625	0.01206
4055.039	0.01946
4056.453	0.02741
4057.867	0.04006
4059.281	0.06067
4060.696	0.07939
4062.111	0.11043
4063.526	0.14902
4064.941	0.19503
4066.357	0.24028
4067.772	0.29497
4069.188	0.35348
4070.604	0.40115
4072.021	0.45304
4073.437	0.50857
4074.854	0.55208
4076.271	0.59205
4077.688	0.61760
4079.106	0.65281
4080.524	0.67754
4081.942	0.69121
4083.360	0.70572
4084.778	0.71705
4086.197	0.72930
4087.615	0.75810
4089.035	0.74683
4090.454	0.73830
4091.873	0.75511
4093.293	0.75726
4094.713	0.75171
4096.133	0.73280
4097.553	0.71956
4098.974	0.71001
4100.395	0.70826
4101.816	0.69278
4103.237	0.67455
4104.659	0.66091
4106.080	0.64937
4107.502	0.63783
4108.924	0.63219
4110.347	0.62296
4111.769	0.62069
4113.192	0.61998
4114.615	0.61928
4116.039	0.62883
4117.462	0.62524
4118.886	0.62376
4120.310	0.62146
4121.734	0.63339
4123.158	0.62898
4124.583	0.64573
4126.008	0.64686
4127.433	0.67470
4128.858	0.65000
4130.283	0.68113
4131.709	0.67734
4133.135	0.65807
4134.561	0.64154
4135.988	0.60706
4137.414	0.55426
4138.841	0.50145
4140.268	0.44188
4141.695	0.37541
4143.123	0.30410
4144.550	0.24192
4145.978	0.18161
4147.407	0.12615
4148.835	0.08331
4150.264	0.05414
4151.692	0.03535
4153.121	0.02264
4154.551	0.01559
4155.980	0.01123
4157.410	0.00715
4158.840	0.00566
4160.270	0.00311
4161.700	0.00230
4163.131	0.00268
4164.562	0.00110
4165.993	0.00138
4167.424	0.00111
4168.856	0.00051
4170.287	0.00136
4171.719	0.00110
4173.151	0.00103
4174.584	0.00064
4176.016	0.00077
4177.449	0.00015
4178.882	-0.00005
4180.315	0.00039
4181.749	0.00014
4183.183	0.00022
4184.617	0.00007
4186.051	0.00007
4187.485	-0.00026
4188.920	0.00068
4190.355	0.00079
4191.790	-0.00042
4193.225	-0.00015
4194.660	-0.00007
4196.096	0.00109
4197.532	0.00005
4198.968	0.00052
4200.405	0.00025
4201.841	-0.00015
4203.278	-0.00044
4204.715	0.00019
4206.152	0.00008
4207.590	0.00028
4209.027	0.00045
4210.465	0.00016
4211.904	0.00006
4213.342	-0.00001
4214.781	0.00011
4216.219	0.00011
4217.658	0.00021
4219.098	-0.00044
4220.537	0.00031
4221.977	0.00014
4223.417	0.00007
4224.857	0.00083
4226.297	0.00039
4227.738	0.00034
4229.179	0.00051
4230.620	0.00042
4232.061	0.00023
4233.503	0.00060
4234.944	-0.00004
4236.386	-0.00051
4237.828	0.00012
4239.271	0.00010
4240.713	-0.00001
4242.156	0.00046
4243.599	0.00011
4245.042	-0.00006
4246.486	0.00011
4247.930	0.00003
4249.374	-0.00005
4250.818	-0.00034
4252.262	0.00006
4253.707	-0.00001
4255.152	0.00019
4256.597	-0.00000
4258.042	0.00020
4259.487	0.00025
4260.933	-0.00050
4262.379	-0.00061
4263.825	0.00014
4265.272	0.00012
4266.718	-0.00015
4268.165	0.00005
4269.612	-0.00053
4271.059	0.00006
4272.507	-0.00004
4273.955	0.00008
4275.402	-0.00010
4276.851	-0.00019
4278.299	-0.00017
4279.748	0.00010
4281.196	0.00002
4282.645	0.00007
4284.095	-0.00000
4285.544	-0.00009
4286.994	-0.00009
4288.444	0.00012
4289.894	-0.00010
4291.344	-0.00010
4292.795	-0.00017
4294.246	0.00067
4295.697	0.00011
4297.148	-0.00053
4298.600	0.00009
4300.051	-0.00062
4301.503	-0.00010
4302.955	-0.00052
4304.408	-0.00004
4305.860	-0.00029
4307.313	-0.00004
4308.766	0.00012
4310.220	-0.00052
4311.673	0.00005
4313.127	0.00027
4314.581	0.00010
4316.035	0.00009
4317.489	-0.00011
4318.944	0.00048
4320.399	0.00032
4321.854	-0.00025
4323.309	-0.00008
4324.765	0.00021
4326.220	-0.00041
4327.676	-0.00039
4329.132	-0.00007
4330.589	-0.00013
4332.045	0.00014
4333.502	-0.00006
4334.959	-0.00005
4336.417	-0.00018
4337.874	0.00013
4339.332	-0.00037
4340.790	0.00036
4342.248	-0.00013
4343.706	-0.00009
4345.165	-0.00040
4346.624	0.00034
4348.083	0.00021
4349.542	0.00003
4351.001	-0.00016
4352.461	-0.00017
4353.921	-0.00006
4355.381	0.00014
4356.842	-0.00028
4358.302	0.00012
4359.763	-0.00019
4361.224	-0.00027
4362.685	0.00024
4364.147	-0.00007
4365.609	0.00036
4367.071	-0.00016
4368.533	-0.00043
4369.995	0.00009
4371.458	-0.00063
4372.921	0.00039
4374.384	-0.00007
4375.847	-0.00001
4377.310	0.00005
4378.774	0.00004
4380.238	0.00038
4381.702	-0.00014
4383.167	0.00014
4384.631	0.00005
4386.096	-0.00033
4387.561	-0.00032
4389.026	0.00039
4390.492	-0.00001
4391.958	-0.00001
4393.423	0.00029
4394.890	0.00028
4396.356	0.00023
4397.823	-0.00003
4399.289	-0.00009
4400.757	0.00008
4402.224	0.00016
4403.691	-0.00001
4405.159	-0.00028
4406.627	-0.00014
4408.095	0.00055
4409.563	0.00035
4411.032	0.00012
4412.501	0.00030
4413.970	0.00009
4415.439	0.00011
4416.909	-0.00057
4418.378	0.00016
4419.848	-0.00036
4421.319	0.00015
4422.789	0.00008
4424.260	-0.00006
4425.730	-0.00021
4427.201	-0.00023
4428.673	0.00034
4430.144	0.00014
4431.616	-0.00015
4433.088	-0.00014
4434.560	-0.00007
4436.032	-0.00035
4437.505	-0.00036
4438.978	-0.00006
4440.451	0.00005
4441.924	-0.00006
4443.398	-0.00014
4444.871	0.00018
4446.345	-0.00006
4447.820	0.00025
4449.294	-0.00019
4450.769	-0.00028
4452.243	0.00007
4453.718	-0.00016
4455.194	-0.00002
4456.669	-0.00018
4458.145	0.00017
4459.621	-0.00025
4461.097	-0.00048
4462.573	-0.00036
4464.050	0.00009
4465.527	0.00022
4467.004	0.00018
4468.481	-0.00010
4469.959	0.00018
4471.436	0.00004
4472.914	0.00005
4474.392	-0.00005
4475.871	-0.00019
4477.349	-0.00013
4478.828	0.00014
4480.307	-0.00015
4481.787	0.00001
4483.266	0.00003
4484.746	-0.00061
4486.226	-0.00003
4487.706	0.00021
4489.186	0.00014
4490.667	-0.00014
4492.148	-0.00026
4493.629	0.00013
4495.110	0.00013
4496.592	-0.00016
4498.073	-0.00036
4499.555	-0.00002
4501.037	-0.00003
4502.520	0.00011
4504.002	-0.00030
4505.485	-0.00003
4506.968	0.00015
4508.452	-0.00002
4509.935	0.00002
4511.419	-0.00052
4512.903	-0.00023
4514.387	-0.00023
4515.871	-0.00024
4517.356	-0.00022
4518.841	-0.00019
4520.326	-0.00015
4521.811	0.00010
4523.297	0.00014
4524.782	-0.00019
4526.268	-0.00031
4527.754	0.00003
4529.241	-0.00034
4530.727	0.00004
4532.214	-0.00026
4533.701	-0.00020
4535.189	-0.00008
4536.676	-0.00026
4538.164	-0.00020
4539.652	-0.00018
4541.140	-0.00012
4542.628	0.00002
4544.117	-0.00036
4545.606	-0.00009
4547.095	-0.00008
4548.584	0.00002
4550.074	-0.00019
4551.563	0.00008
4553.053	-0.00002
4554.543	0.00009
4556.034	-0.00024
4557.524	-0.00030
4559.015	-0.00051
4560.506	0.00008
4561.998	-0.00030
4563.489	-0.00016
4564.981	-0.00008
4566.473	-0.00002
4567.965	-0.00006
4569.457	-0.00032
4570.950	-0.00001
4572.443	-0.00009
4573.936	-0.00017
4575.429	0.00017
4576.923	-0.00009
4578.416	-0.00034
4579.910	-0.00034
4581.404	-0.00050
4582.899	0.00016
4584.394	-0.00014
4585.888	0.00013
4587.383	-0.00020
4588.879	-0.00038
4590.374	-0.00000
4591.870	-0.00016
4593.366	-0.00013
4594.862	0.00016
4596.358	0.00021
4597.855	-0.00006
4599.352	-0.00009
4600.849	-0.00015
4602.346	-0.00036
4603.844	-0.00010
4605.341	0.00020
4606.839	0.00010
4608.338	-0.00032
4609.836	-0.00002
4611.335	-0.00020
4612.833	-0.00015
4614.332	0.00018
4615.832	0.00004
4617.331	0.00018
4618.831	0.00002
4620.331	0.00002
4621.831	-0.00021
4623.331	0.00016
4624.832	0.00006
4626.333	-0.00006
4627.834	-0.00015
4629.335	0.00002
4630.837	0.00007
4632.338	-0.00013
4633.840	-0.00026
4635.343	0.00008
4636.845	-0.00012
4638.348	-0.00004
4639.850	0.00002
4641.354	0.00012
4642.857	-0.00003
4644.360	-0.00007
4645.864	0.00007
4647.368	-0.00002
4648.872	0.00009
4650.377	-0.00012
4651.881	-0.00020
4653.386	-0.00007
4654.891	-0.00020
4656.396	-0.00021
4657.902	-0.00015
4659.408	-0.00002
4660.914	-0.00016
4662.420	-0.00007
4663.926	-0.00007
4665.433	-0.00014
4666.940	-0.00014
4668.447	-0.00003
4669.954	-0.00018
4671.461	0.00001
4672.969	-0.00025
4674.477	0.00014
4675.985	-0.00015
4677.494	-0.00028
4679.002	0.00004
4680.511	-0.00007
4682.020	-0.00016
4683.529	0.00000
4685.039	-0.00036
4686.549	-0.00002
4688.059	-0.00008
4689.569	0.00026
4691.079	-0.00004
4692.590	-0.00003
4694.101	0.00001
4695.612	-0.00009
4697.123	-0.00022
4698.634	0.00000
4700.146	-0.00002
4701.658	-0.00017
4703.170	-0.00007
4704.683	-0.00024
4706.195	0.00002
4707.708	0.00016
4709.221	-0.00005
4710.735	0.00011
4712.248	-0.00003
4713.762	-0.00000
4715.276	-0.00001
4716.790	0.00001
4718.304	0.00009
4719.819	0.00001
4721.334	0.00004
4722.849	-0.00004
4724.364	0.00001
4725.880	-0.00013
4727.395	0.00010
4728.911	-0.00014
4730.427	-0.00014
4731.944	0.00009
4733.460	-0.00021
4734.977	0.00011
4736.494	0.00006
4738.012	-0.00012
4739.529	-0.00023
4741.047	0.00008
4742.565	0.00020
4744.083	-0.00019
4745.601	-0.00019
4747.120	-0.00012
4748.639	-0.00024
4750.158	-0.00025
4751.677	0.00004
4753.197	-0.00025
4754.716	-0.00031
4756.236	-0.00003
4757.757	-0.00013
4759.277	0.00002
4760.798	-0.00026
4762.318	-0.00004
4763.840	-0.00005
4765.361	-0.00013
4766.882	-0.00020
4768.404	-0.00030
4769.926	-0.00024
4771.448	-0.00005
4772.971	-0.00012
4774.493	-0.00012
4776.016	-0.00013
4777.539	-0.00015
4779.062	-0.00012
4780.586	0.00023
4782.110	-0.00024
4783.634	-0.00019
4785.158	-0.00001
4786.682	-0.00024
4788.207	0.00002
4789.732	0.00003
4791.257	-0.00011
4792.782	0.00003
4794.307	-0.00011
4795.833	0.00004
4797.359	-0.00007
4798.885	0.00001
4800.412	-0.00019
4801.938	0.00016
4803.465	-0.00000
4804.992	-0.00006
4806.520	0.00005
4808.047	-0.00009
4809.575	-0.00001
4811.103	0.00007
4812.631	-0.00004
4814.159	-0.00034
4815.688	-0.00000
4817.217	-0.00009
4818.746	-0.00005
4820.275	0.00010
4821.805	-0.00013
4823.334	-0.00001
4824.864	-0.00017
4826.395	-0.00011
4827.925	-0.00013
4829.456	-0.00014
4830.986	-0.00007
4832.517	-0.00009
4834.049	-0.00012
4835.580	0.00005
4837.112	-0.00016
4838.644	-0.00010
4840.176	0.00006
4841.708	-0.00013
4843.241	-0.00012
4844.774	-0.00002
4846.307	-0.00032
4847.840	-0.00015
4849.374	0.00017
4850.908	0.00012
4852.442	-0.00018
4853.976	-0.00026
4855.510	0.00001
4857.045	-0.00014
4858.580	-0.00020
4860.115	-0.00011
4861.650	0.00008
4863.185	-0.00009
4864.721	-0.00001
4866.257	-0.00006
4867.793	-0.00012
4869.330	-0.00007
4870.866	0.00001
4872.403	-0.00008
4873.940	-0.00020
4875.478	-0.00003
4877.015	-0.00001
4878.553	-0.00006
4880.091	-0.00004
4881.629	0.00016
4883.167	0.00002
4884.706	-0.00029
4886.245	-0.00021
4887.784	0.00003
4889.323	0.00001
4890.863	-0.00009
4892.402	0.00003
4893.942	-0.00015
4895.483	-0.00015
4897.023	0.00004
4898.564	-0.00027
4900.104	-0.00002
4901.645	-0.00016
4903.187	0.00004
4904.728	0.00005
4906.270	-0.00022
4907.812	0.00000
4909.354	-0.00006
4910.897	-0.00023
4912.439	-0.00014
4913.982	-0.00019
4915.525	-0.00009
4917.068	-0.00014
4918.612	-0.00006
4920.156	-0.00024
4921.700	-0.00012
4923.244	0.00008
4924.788	0.00005
4926.333	-0.00004
4927.878	-0.00027
4929.423	-0.00015
4930.968	-0.00000
4932.513	-0.00009
4934.059	-0.00015
4935.605	0.00004
4937.151	0.00000
4938.698	0.00008
4940.244	-0.00014
4941.791	-0.00003
4943.338	-0.00002
4944.886	-0.00033
4946.433	-0.00013
4947.981	0.00002
4949.529	0.00002
4951.077	-0.00012
4952.625	0.00003
4954.174	0.00016
4955.723	0.00010
4957.272	0.00006
4958.821	-0.00012
4960.371	0.00003
4961.920	-0.00006
4963.470	-0.00013
4965.021	0.00020
4966.571	-0.00001
4968.122	0.00023
4969.673	-0.00005
4971.224	-0.00021
4972.775	-0.00016
4974.326	0.00004
4975.878	-0.00005
4977.430	-0.00002
4978.982	-0.00008
4980.535	-0.00012
4982.087	0.00003
4983.640	-0.00011
4985.193	-0.00014
4986.747	-0.00014
4988.300	-0.00011
4989.854	-0.00024
4991.408	-0.00001
4992.962	-0.00012
4994.516	-0.00004
4996.071	-0.00001
4997.626	-0.00009
4999.181	0.00000
5000.736	-0.00010
5002.292	-0.00017
5003.847	0.00006
5005.403	-0.00004
5006.960	-0.00017
5008.516	-0.00008
5010.073	-0.00017
5011.629	-0.00017
5013.186	-0.00020
5014.744	-0.00008
5016.301	-0.00005
5017.859	0.00001
5019.417	0.00001
5020.975	-0.00010
5022.534	0.00000
5024.092	-0.00006
5025.651	-0.00001
5027.210	0.00004
5028.769	0.00001
5030.329	-0.00003
5031.889	-0.00001
5033.449	0.00002
5035.009	-0.00009
5036.569	0.00006
5038.130	-0.00002
5039.691	0.00002
5041.252	-0.00004
5042.813	-0.00010
5044.375	-0.00003
5045.936	-0.00011
5047.498	-0.00018
5049.060	-0.00012
5050.623	-0.00009
5052.186	-0.00003
5053.748	-0.00023
5055.311	-0.00019
5056.875	0.00002
5058.438	-0.00009
5060.002	-0.00010
5061.566	0.00001
5063.130	-0.00007
5064.695	0.00000
5066.259	-0.00003
5067.824	-0.00016
5069.389	-0.00006
5070.954	-0.00008
5072.520	0.00003
5074.086	0.00002
5075.652	-0.00012
5077.218	0.00005
5078.784	-0.00006
5080.351	-0.00018
5081.918	0.00012
5083.485	-0.00020
5085.052	-0.00003
5086.620	-0.00027
5088.187	-0.00008
