#Measured with ALFOSC, zero-transmission level has low accuracy
5000.0   0.29
5005.0   0.24
5010.0   0.24
5015.0   0.21
5020.0   0.20
5025.0   0.20
5030.0   0.24
5035.0   0.14
5040.0   0.17
5045.0   0.06
5050.0   0.11
5055.0   0.14
5060.0   0.11
5065.0   0.12
5070.0   0.10
5075.0   0.12
5080.0   0.03
5085.0   0.06
5090.0   0.04
5095.0   0.11
5100.0   0.02
5105.0  -0.04
5110.0   0.02
5115.0  -0.03
5120.0  -0.05
5125.0   0.01
5130.0   0.01
5135.0   0.00
5140.0  -0.04
5145.0  -0.09
5150.0  -0.06
5155.0  -0.05
5160.0  -0.02
5165.0   0.04
5170.0  -0.08
5175.0  -0.07
5180.0  -0.09
5185.0  -0.07
5190.0  -0.08
5195.0  -0.14
5200.0  -0.09
5205.0  -0.18
5210.0  -0.22
5215.0  -0.24
5220.0  -0.18
5225.0  -0.21
5230.0  -0.36
5235.0  -0.24
5240.0  -0.22
5245.0  -0.26
5250.0  -0.25
5255.0  -0.21
5260.0  -0.24
5265.0  -0.18
5270.0  -0.21
5275.0  -0.11
5280.0  -0.11
5285.0  -0.13
5290.0  -0.01
5295.0   0.02
5300.0   0.03
5305.0   0.07
5310.0  -0.01
5315.0   0.01
5320.0   0.02
5325.0   0.05
5330.0   0.07
5335.0   0.03
5340.0   0.04
5345.0   0.03
5350.0   0.05
5355.0   0.05
5360.0   0.04
5365.0   0.06
5370.0   0.07
5375.0   0.06
5380.0   0.04
5385.0   0.13
5390.0   0.10
5395.0   0.05
5400.0   0.08
5405.0   0.04
5410.0   0.05
5415.0   0.10
5420.0   0.09
5425.0   0.05
5430.0   0.01
5435.0   0.08
5440.0   0.08
5445.0   0.07
5450.0   0.15
5455.0   0.11
5460.0   0.14
5465.0   0.05
5470.0   0.08
5475.0   0.06
5480.0   0.12
5485.0   0.13
5490.0   0.13
5495.0   0.16
5500.0   0.16
5505.0   0.13
5510.0   0.09
5515.0   0.12
5520.0   0.08
5525.0   0.09
5530.0   0.11
5535.0   0.12
5540.0   0.13
5545.0   0.10
5550.0   0.10
5555.0   0.16
5560.0   0.09
5565.0   0.11
5570.0   0.09
5575.0   0.13
5580.0   0.09
5585.0   0.08
5590.0   0.09
5595.0   0.08
5600.0   0.07
5605.0   0.09
5610.0   0.04
5615.0   0.01
5620.0   0.03
5625.0   0.07
5630.0   0.06
5635.0   0.04
5640.0   0.03
5645.0   0.03
5650.0   0.03
5655.0   0.02
5660.0   0.04
5665.0  -0.01
5670.0   0.02
5675.0   0.03
5680.0   0.02
5685.0  -0.02
5690.0  -0.01
5695.0   0.01
5700.0  -0.01
5705.0  -0.04
5710.0  -0.03
5715.0  -0.01
5720.0  -0.03
5725.0   0.02
5730.0  -0.02
5735.0  -0.05
5740.0  -0.02
5745.0   0.01
5750.0  -0.02
5755.0  -0.02
5760.0  -0.05
5765.0  -0.07
5770.0  -0.05
5775.0  -0.03
5780.0  -0.05
5785.0  -0.03
5790.0  -0.07
5795.0  -0.04
5800.0  -0.01
5805.0  -0.03
5810.0  -0.01
5815.0  -0.04
5820.0  -0.03
5825.0  -0.02
5830.0   0.00
5835.0  -0.03
5840.0  -0.03
5845.0  -0.03
5850.0   0.01
5855.0  -0.01
5860.0   0.02
5865.0  -0.05
5870.0  -0.03
5875.0  -0.00
5880.0  -0.06
5885.0  -0.07
5890.0  -0.07
5895.0  -0.04
5900.0  -0.01
5905.0  -0.02
5910.0   0.01
5915.0  -0.00
5920.0   0.01
5925.0  -0.01
5930.0   0.03
5935.0  -0.00
5940.0   0.00
5945.0  -0.01
5950.0   0.01
5955.0   0.03
5960.0   0.04
5965.0   0.03
5970.0   0.00
5975.0   0.03
5980.0   0.03
5985.0   0.04
5990.0   0.00
5995.0   0.06
6000.0   0.02
6005.0   0.02
6010.0   0.07
6015.0   0.06
6020.0   0.07
6025.0   0.04
6030.0   0.08
6035.0   0.08
6040.0   0.08
6045.0   0.08
6050.0   0.08
6055.0   0.08
6060.0   0.09
6065.0   0.11
6070.0   0.11
6075.0   0.11
6080.0   0.12
6085.0   0.11
6090.0   0.15
6095.0   0.13
6100.0   0.11
6105.0   0.12
6110.0   0.15
6115.0   0.17
6120.0   0.16
6125.0   0.16
6130.0   0.16
6135.0   0.17
6140.0   0.15
6145.0   0.20
6150.0   0.17
6155.0   0.17
6160.0   0.17
6165.0   0.18
6170.0   0.21
6175.0   0.24
6180.0   0.21
6185.0   0.20
6190.0   0.20
6195.0   0.22
6200.0   0.25
6205.0   0.21
6210.0   0.22
6215.0   0.21
6220.0   0.20
6225.0   0.20
6230.0   0.22
6235.0   0.21
6240.0   0.24
6245.0   0.24
6250.0   0.23
6255.0   0.22
6260.0   0.23
6265.0   0.25
6270.0   0.26
6275.0   0.21
6280.0   0.25
6285.0   0.24
6290.0   0.26
6295.0   0.26
6300.0   0.25
6305.0   0.23
6310.0   0.25
6315.0   0.26
6320.0   0.26
6325.0   0.26
6330.0   0.27
6335.0   0.27
6340.0   0.24
6345.0   0.28
6350.0   0.27
6355.0   0.25
6360.0   0.28
6365.0   0.29
6370.0   0.26
6375.0   0.27
6380.0   0.26
6385.0   0.25
6390.0   0.26
6395.0   0.26
6400.0   0.26
6405.0   0.24
6410.0   0.25
6415.0   0.29
6420.0   0.28
6425.0   0.29
6430.0   0.27
6435.0   0.27
6440.0   0.29
6445.0   0.29
6450.0   0.30
6455.0   0.33
6460.0   0.28
6465.0   0.34
6470.0   0.38
6475.0   0.33
6480.0   0.34
6485.0   0.36
6490.0   0.37
6495.0   0.40
6500.0   0.39
6505.0   0.40
6510.0   0.41
6515.0   0.47
6520.0   0.49
6525.0   0.51
6530.0   0.59
6535.0   0.62
6540.0   0.66
6545.0   0.75
6550.0   0.81
6555.0   0.93
6560.0   1.02
6565.0   1.16
6570.0   1.36
6575.0   1.50
6580.0   1.77
6585.0   2.01
6590.0   2.36
6595.0   2.69
6600.0   3.10
6605.0   3.61
6610.0   4.16
6615.0   4.75
6620.0   5.49
6625.0   6.24
6630.0   7.14
6635.0   8.06
6640.0   9.08
6645.0  10.26
6650.0  11.50
6655.0  12.87
6660.0  14.23
6665.0  15.75
6670.0  17.24
6675.0  18.96
6680.0  20.71
6685.0  22.55
6690.0  24.42
6695.0  26.33
6700.0  28.26
6705.0  30.22
6710.0  32.31
6715.0  34.29
6720.0  36.34
6725.0  38.33
6730.0  40.27
6735.0  42.22
6740.0  44.21
6745.0  46.06
6750.0  48.03
6755.0  49.95
6760.0  51.68
6765.0  53.43
6770.0  55.07
6775.0  56.72
6780.0  58.48
6785.0  59.95
6790.0  61.48
6795.0  62.80
6800.0  64.20
6805.0  65.47
6810.0  66.80
6815.0  68.04
6820.0  69.13
6825.0  70.49
6830.0  71.39
6835.0  72.22
6840.0  73.08
6845.0  74.20
6850.0  75.05
6855.0  75.85
6860.0  76.62
6865.0  77.38
6870.0  78.02
6875.0  78.84
6880.0  79.32
6885.0  80.01
6890.0  80.50
6895.0  81.03
6900.0  81.51
6905.0  81.93
6910.0  82.44
6915.0  83.13
6920.0  83.22
6925.0  83.69
6930.0  83.97
6935.0  84.51
6940.0  84.66
6945.0  85.11
6950.0  85.30
6955.0  85.62
6960.0  85.80
6965.0  86.14
6970.0  86.42
6975.0  86.46
6980.0  86.80
6985.0  87.01
6990.0  87.22
6995.0  87.38
7000.0  87.70
7005.0  87.73
7010.0  87.72
7015.0  88.04
7020.0  88.13
7025.0  88.24
7030.0  88.55
7035.0  88.53
7040.0  88.62
7045.0  88.57
7050.0  88.80
7055.0  88.75
7060.0  89.02
7065.0  89.07
7070.0  89.16
7075.0  89.33
7080.0  89.47
7085.0  89.31
7090.0  89.43
7095.0  89.53
7100.0  89.60
7105.0  89.82
7110.0  89.76
7115.0  89.90
7120.0  89.77
7125.0  90.01
7130.0  90.10
7135.0  90.00
7140.0  89.95
7145.0  90.08
7150.0  90.09
7155.0  90.31
7160.0  90.16
7165.0  90.14
7170.0  90.23
7175.0  90.31
7180.0  90.44
7185.0  90.39
7190.0  90.53
7195.0  90.40
7200.0  90.28
7205.0  90.62
7210.0  90.51
7215.0  90.58
7220.0  90.48
7225.0  90.61
7230.0  90.50
7235.0  90.79
7240.0  90.58
7245.0  90.65
7250.0  90.68
7255.0  90.75
7260.0  90.63
7265.0  90.61
7270.0  90.72
7275.0  90.65
7280.0  90.74
7285.0  90.75
7290.0  90.84
7295.0  90.87
7300.0  90.72
7305.0  90.88
7310.0  91.11
7315.0  90.90
7320.0  90.84
7325.0  91.04
7330.0  90.80
7335.0  91.09
7340.0  91.06
7345.0  90.84
7350.0  90.94
7355.0  90.93
7360.0  90.94
7365.0  91.06
7370.0  90.87
7375.0  90.95
7380.0  91.05
7385.0  91.01
7390.0  91.01
7395.0  90.94
7400.0  90.95
7405.0  91.02
7410.0  91.04
7415.0  91.14
7420.0  91.04
7425.0  90.99
7430.0  90.91
7435.0  91.09
7440.0  91.08
7445.0  91.09
7450.0  91.20
7455.0  91.16
7460.0  91.20
7465.0  91.18
7470.0  90.98
7475.0  91.21
7480.0  91.26
7485.0  91.03
7490.0  91.24
7495.0  91.06
7500.0  91.17
7505.0  91.28
7510.0  91.21
7515.0  91.18
7520.0  91.27
7525.0  91.18
7530.0  91.08
7535.0  90.99
7540.0  91.15
7545.0  91.12
7550.0  91.25
7555.0  91.36
7560.0  91.23
7565.0  91.16
7570.0  91.34
7575.0  91.25
7580.0  91.21
7585.0  91.21
7590.0  91.20
7595.0  91.17
7600.0  91.18
7605.0  91.25
7610.0  91.21
7615.0  91.30
7620.0  91.15
7625.0  91.35
7630.0  91.32
7635.0  91.28
7640.0  91.34
7645.0  91.19
7650.0  91.17
7655.0  91.26
7660.0  91.29
7665.0  91.20
7670.0  91.10
7675.0  91.18
7680.0  91.27
7685.0  91.30
7690.0  91.43
7695.0  91.33
7700.0  91.33
7705.0  91.36
7710.0  91.05
7715.0  91.19
7720.0  91.24
7725.0  91.22
7730.0  91.33
7735.0  91.33
7740.0  91.31
7745.0  91.17
7750.0  91.28
7755.0  91.13
7760.0  91.30
7765.0  91.28
7770.0  91.34
7775.0  91.14
7780.0  91.38
7785.0  91.23
7790.0  91.24
7795.0  91.36
7800.0  91.32
7805.0  91.20
7810.0  91.21
7815.0  91.25
7820.0  91.25
7825.0  91.13
7830.0  91.27
7835.0  91.30
7840.0  91.33
7845.0  91.32
7850.0  91.32
7855.0  91.16
7860.0  91.29
7865.0  91.23
7870.0  91.25
7875.0  91.43
7880.0  91.43
7885.0  91.28
7890.0  91.28
7895.0  91.22
7900.0  91.34
7905.0  91.23
7910.0  91.33
7915.0  91.41
7920.0  91.46
7925.0  91.39
7930.0  91.49
7935.0  91.35
7940.0  91.15
7945.0  91.54
7950.0  91.18
7955.0  91.22
7960.0  91.34
7965.0  91.44
7970.0  91.38
7975.0  91.26
7980.0  91.33
7985.0  91.32
7990.0  91.27
7995.0  91.32
8000.0  91.41
8005.0  91.44
8010.0  91.34
8015.0  91.29
8020.0  91.35
8025.0  91.26
8030.0  91.22
8035.0  91.43
8040.0  91.49
8045.0  91.47
8050.0  91.32
8055.0  91.36
8060.0  91.46
8065.0  91.23
8070.0  91.50
8075.0  91.33
8080.0  91.43
8085.0  91.38
8090.0  91.35
8095.0  91.30
8100.0  91.49
8105.0  91.32
8110.0  91.26
8115.0  91.31
8120.0  91.40
8125.0  91.43
8130.0  91.34
8135.0  91.29
8140.0  91.41
8145.0  91.34
8150.0  91.22
8155.0  91.44
8160.0  91.39
8165.0  91.43
8170.0  91.36
8175.0  91.38
8180.0  91.28
8185.0  91.26
8190.0  91.23
8195.0  91.34
8200.0  91.44
8205.0  91.41
8210.0  91.39
8215.0  91.41
8220.0  91.28
8225.0  91.53
8230.0  91.42
8235.0  91.40
8240.0  91.39
8245.0  91.37
8250.0  91.45
8255.0  91.29
8260.0  91.65
8265.0  91.37
8270.0  91.55
8275.0  91.26
8280.0  91.47
8285.0  91.49
8290.0  91.52
8295.0  91.44
8300.0  91.33
8305.0  91.41
8310.0  91.33
8315.0  91.66
8320.0  91.27
8325.0  91.26
8330.0  91.31
8335.0  91.50
8340.0  91.10
8345.0  91.38
8350.0  91.35
8355.0  91.38
8360.0  91.36
8365.0  91.29
8370.0  91.19
8375.0  91.31
8380.0  91.43
8385.0  91.32
8390.0  91.27
8395.0  91.22
8400.0  91.45
8405.0  91.54
8410.0  91.16
8415.0  91.38
8420.0  91.52
8425.0  91.40
8430.0  91.26
8435.0  91.40
8440.0  91.44
8445.0  91.35
8450.0  91.32
8455.0  91.31
8460.0  91.53
8465.0  91.49
8470.0  91.46
8475.0  91.42
8480.0  91.36
8485.0  91.44
8490.0  91.31
8495.0  91.42
8500.0  91.42
8505.0  91.42
8510.0  91.39
8515.0  91.41
8520.0  91.43
8525.0  91.40
8530.0  91.34
8535.0  91.36
8540.0  91.39
8545.0  91.25
8550.0  91.40
8555.0  91.24
8560.0  91.39
8565.0  91.17
8570.0  91.44
8575.0  91.21
8580.0  91.25
8585.0  91.28
8590.0  91.44
8595.0  91.34
8600.0  91.33
8605.0  91.33
8610.0  91.51
8615.0  91.46
8620.0  91.42
8625.0  91.30
8630.0  91.34
8635.0  91.47
8640.0  91.37
8645.0  91.31
8650.0  91.30
8655.0  91.43
8660.0  91.16
8665.0  91.48
8670.0  91.46
8675.0  91.40
8680.0  91.36
8685.0  91.34
8690.0  91.59
8695.0  91.36
8700.0  91.21
8705.0  91.23
8710.0  91.26
8715.0  91.55
8720.0  91.34
8725.0  91.11
8730.0  91.52
8735.0  91.31
8740.0  91.30
8745.0  91.47
8750.0  91.47
8755.0  91.37
8760.0  91.47
8765.0  91.40
8770.0  91.55
8775.0  91.40
8780.0  91.48
8785.0  91.56
8790.0  91.28
8795.0  91.26
8800.0  91.17
8805.0  91.42
8810.0  91.59
8815.0  91.40
8820.0  91.32
8825.0  91.30
8830.0  91.30
8835.0  91.32
8840.0  91.33
8845.0  91.39
8850.0  91.29
8855.0  91.23
8860.0  91.56
8865.0  91.43
8870.0  91.23
8875.0  91.60
8880.0  91.28
8885.0  91.30
8890.0  91.29
8895.0  91.30
8900.0  91.23
8905.0  91.36
8910.0  91.28
8915.0  91.41
8920.0  91.31
8925.0  91.52
8930.0  91.46
8935.0  91.07
8940.0  91.37
8945.0  91.43
8950.0  91.29
8955.0  91.32
8960.0  91.18
8965.0  91.37
8970.0  91.55
8975.0  91.49
8980.0  91.28
8985.0  91.41
8990.0  91.09
8995.0  91.41
9000.0  91.47
9005.0  91.13
9010.0  91.16
9015.0  91.26
9020.0  91.49
9025.0  91.60
9030.0  91.26
9035.0  91.26
9040.0  91.32
9045.0  91.23
9050.0  91.22
9055.0  91.38
9060.0  91.37
9065.0  91.33
9070.0  91.08
9075.0  91.48
