#WG345
#Measured with ALFOSC, zero-transmission level has low accuracy
3320.0  -0.00
3325.0  -0.00
3330.0  -0.10
3335.0  -0.02
3340.0   0.12
3345.0   0.22
3350.0  -0.20
3355.0   0.09
3360.0   0.20
3365.0   0.08
3370.0   0.09
3375.0   0.13
3380.0   0.40
3385.0   0.32
3390.0   0.97
3395.0   1.09
3400.0   1.13
3405.0   2.02
3410.0   2.48
3415.0   3.00
3420.0   3.74
3425.0   4.33
3430.0   5.31
3435.0   5.93
3440.0   6.91
3445.0   8.13
3450.0   9.21
3455.0  10.46
3460.0  11.80
3465.0  13.21
3470.0  14.59
3475.0  16.15
3480.0  17.45
3485.0  19.07
3490.0  20.73
3495.0  22.23
3500.0  23.95
3505.0  25.77
3510.0  27.29
3515.0  28.83
3520.0  30.81
3525.0  32.53
3530.0  34.03
3535.0  35.54
3540.0  37.20
3545.0  39.15
3550.0  40.82
3555.0  42.38
3560.0  43.73
3565.0  45.18
3570.0  46.71
3575.0  48.18
3580.0  49.64
3585.0  51.16
3590.0  52.22
3595.0  53.44
3600.0  54.79
3605.0  55.97
3610.0  57.21
3615.0  58.20
3620.0  59.31
3625.0  60.61
3630.0  61.40
3635.0  62.34
3640.0  63.42
3645.0  64.36
3650.0  65.12
3655.0  65.85
3660.0  66.69
3665.0  67.39
3670.0  68.50
3675.0  69.10
3680.0  69.70
3685.0  70.27
3690.0  70.75
3695.0  71.44
3700.0  72.20
3705.0  72.68
3710.0  73.16
3715.0  73.57
3720.0  74.02
3725.0  74.65
3730.0  74.97
3735.0  75.24
3740.0  75.70
3745.0  76.30
3750.0  76.63
3755.0  76.81
3760.0  77.08
3765.0  77.52
3770.0  77.87
3775.0  78.08
3780.0  78.46
3785.0  78.55
3790.0  79.16
3795.0  79.22
3800.0  79.48
3805.0  79.57
3810.0  79.75
3815.0  79.94
3820.0  80.17
3825.0  80.47
3830.0  80.55
3835.0  80.69
3840.0  80.56
3845.0  81.00
3850.0  81.13
3855.0  81.19
3860.0  81.74
3865.0  81.41
3870.0  81.50
3875.0  81.80
3880.0  81.81
3885.0  81.91
3890.0  81.94
3895.0  82.07
3900.0  82.12
3905.0  82.38
3910.0  82.57
3915.0  82.66
3920.0  82.51
3925.0  82.35
3930.0  82.33
3935.0  82.93
3940.0  82.89
3945.0  83.00
3950.0  83.26
3955.0  83.41
3960.0  83.26
3965.0  83.24
3970.0  83.31
3975.0  83.30
3980.0  83.40
3985.0  83.00
3990.0  83.06
3995.0  83.36
4000.0  83.58
4005.0  83.48
4010.0  83.32
4015.0  83.66
4020.0  83.67
4025.0  83.80
4030.0  83.84
4035.0  83.65
4040.0  83.69
4045.0  83.75
4050.0  83.87
4055.0  83.70
4060.0  83.95
4065.0  84.15
4070.0  83.81
4075.0  84.01
4080.0  84.09
4085.0  83.90
4090.0  84.02
4095.0  84.05
4100.0  84.06
4105.0  84.50
4110.0  84.31
4115.0  84.15
4120.0  84.26
4125.0  84.40
4130.0  84.36
4135.0  84.51
4140.0  84.59
4145.0  84.41
4150.0  84.35
4155.0  84.52
4160.0  84.62
4165.0  84.42
4170.0  84.58
4175.0  84.99
4180.0  84.64
4185.0  84.67
4190.0  84.80
4195.0  84.57
4200.0  84.82
4205.0  84.90
4210.0  85.02
4215.0  84.89
4220.0  85.04
4225.0  84.97
4230.0  84.75
4235.0  85.00
4240.0  84.87
4245.0  85.05
4250.0  85.14
4255.0  85.23
4260.0  84.96
4265.0  84.93
4270.0  85.15
4275.0  85.15
4280.0  85.17
4285.0  85.15
4290.0  85.20
4295.0  85.06
4300.0  85.30
4305.0  85.07
4310.0  85.16
4315.0  85.37
4320.0  85.27
4325.0  85.32
4330.0  85.23
4335.0  85.36
4340.0  85.49
4345.0  85.58
4350.0  85.48
4355.0  85.72
4360.0  85.67
4365.0  85.74
4370.0  85.43
4375.0  85.67
4380.0  85.69
4385.0  85.67
4390.0  85.52
4395.0  85.73
4400.0  85.82
4405.0  85.86
4410.0  85.66
4415.0  85.74
4420.0  85.82
4425.0  85.97
4430.0  85.84
4435.0  85.88
4440.0  85.99
4445.0  85.95
4450.0  85.98
4455.0  85.91
4460.0  85.98
4465.0  86.00
4470.0  86.00
4475.0  86.01
4480.0  86.13
4485.0  86.01
4490.0  85.99
4495.0  85.93
4500.0  86.08
4505.0  85.94
4510.0  85.88
4515.0  86.03
4520.0  85.90
4525.0  85.94
4530.0  85.97
4535.0  86.14
4540.0  86.10
4545.0  86.00
4550.0  86.02
4555.0  85.96
4560.0  86.09
4565.0  85.95
4570.0  86.03
4575.0  85.98
4580.0  86.00
4585.0  86.06
4590.0  86.02
4595.0  86.10
4600.0  86.03
4605.0  85.93
4610.0  86.06
4615.0  86.17
4620.0  86.06
4625.0  86.08
4630.0  86.07
4635.0  86.11
4640.0  86.06
4645.0  86.01
4650.0  86.16
4655.0  86.05
4660.0  86.02
4665.0  86.07
4670.0  86.16
4675.0  86.09
4680.0  86.08
4685.0  86.09
4690.0  86.07
4695.0  86.11
4700.0  86.17
4705.0  86.20
4710.0  86.23
4715.0  86.17
4720.0  86.20
4725.0  86.15
4730.0  86.19
4735.0  86.22
4740.0  85.99
4745.0  86.11
4750.0  86.20
4755.0  86.13
4760.0  85.98
4765.0  86.12
4770.0  86.24
4775.0  86.10
4780.0  86.16
4785.0  86.08
4790.0  86.00
4795.0  86.12
4800.0  86.11
4805.0  86.08
4810.0  86.16
4815.0  86.09
4820.0  86.02
4825.0  86.02
4830.0  86.18
4835.0  85.95
4840.0  86.11
4845.0  86.19
4850.0  86.14
4855.0  86.17
4860.0  86.34
4865.0  86.27
4870.0  86.23
4875.0  86.02
4880.0  86.11
4885.0  86.14
4890.0  86.07
4895.0  86.18
4900.0  86.10
4905.0  86.28
4910.0  86.19
4915.0  86.25
4920.0  86.22
4925.0  86.31
4930.0  86.22
4935.0  86.14
4940.0  86.25
4945.0  86.30
4950.0  86.39
4955.0  86.22
4960.0  86.26
4965.0  86.37
4970.0  86.39
4975.0  86.46
4980.0  86.49
4985.0  86.25
4990.0  86.40
4995.0  86.42
5000.0  86.47
5005.0  86.61
5010.0  86.61
5015.0  86.38
5020.0  86.49
5025.0  86.50
5030.0  86.60
5035.0  86.60
5040.0  86.40
5045.0  86.52
5050.0  86.55
5055.0  86.60
5060.0  86.62
5065.0  86.59
5070.0  86.47
5075.0  86.43
5080.0  86.61
5085.0  86.67
5090.0  86.45
5095.0  86.61
5100.0  86.59
5105.0  86.55
5110.0  86.57
5115.0  86.61
5120.0  86.63
5125.0  86.55
5130.0  86.51
5135.0  86.61
5140.0  86.74
5145.0  86.78
5150.0  86.69
5155.0  86.63
5160.0  86.81
5165.0  86.89
5170.0  86.83
5175.0  86.81
5180.0  86.76
5185.0  86.61
5190.0  86.67
5195.0  86.86
5200.0  86.70
5205.0  86.66
5210.0  86.72
5215.0  86.76
5220.0  86.58
5225.0  86.72
5230.0  86.71
5235.0  86.71
5240.0  86.68
5245.0  86.81
5250.0  86.72
5255.0  86.68
5260.0  86.67
5265.0  86.85
5270.0  86.70
5275.0  86.83
5280.0  86.89
5285.0  86.82
5290.0  86.68
5295.0  86.66
5300.0  86.65
5305.0  86.71
5310.0  86.67
5315.0  86.68
5320.0  86.84
5325.0  86.84
5330.0  86.73
5335.0  86.89
5340.0  86.76
5345.0  86.77
5350.0  86.74
5355.0  86.69
5360.0  86.84
5365.0  86.67
5370.0  86.71
5375.0  86.80
5380.0  86.94
5385.0  86.80
5390.0  86.77
5395.0  86.67
5400.0  86.69
5405.0  86.52
5410.0  86.71
5415.0  86.70
5420.0  86.74
5425.0  86.67
5430.0  86.82
5435.0  86.55
5440.0  86.81
5445.0  86.77
5450.0  86.69
5455.0  86.74
5460.0  86.76
5465.0  86.82
5470.0  86.87
5475.0  86.74
5480.0  86.68
5485.0  86.69
5490.0  86.62
5495.0  86.83
5500.0  86.78
5505.0  86.75
5510.0  86.78
5515.0  86.76
5520.0  86.81
5525.0  86.90
5530.0  86.82
5535.0  86.76
5540.0  86.78
5545.0  86.75
5550.0  86.77
5555.0  86.76
5560.0  86.85
5565.0  86.80
5570.0  86.80
5575.0  86.73
5580.0  86.81
5585.0  86.78
5590.0  86.78
5595.0  86.79
5600.0  86.84
5605.0  86.83
5610.0  86.82
5615.0  86.76
5620.0  86.72
5625.0  86.80
5630.0  86.76
5635.0  86.94
5640.0  86.84
5645.0  86.77
5650.0  86.87
5655.0  86.84
5660.0  86.77
5665.0  86.83
5670.0  86.83
5675.0  86.70
5680.0  86.70
5685.0  86.92
5690.0  86.94
5695.0  86.79
5700.0  86.98
5705.0  86.88
5710.0  86.71
5715.0  86.95
5720.0  86.94
5725.0  86.80
5730.0  86.81
5735.0  86.83
5740.0  86.97
5745.0  86.94
5750.0  86.80
5755.0  86.83
5760.0  86.95
5765.0  86.86
5770.0  86.78
5775.0  86.92
5780.0  86.74
5785.0  86.89
5790.0  86.82
5795.0  86.86
5800.0  86.89
5805.0  86.85
5810.0  86.76
5815.0  86.90
5820.0  86.88
5825.0  86.84
5830.0  86.97
5835.0  87.01
5840.0  86.90
5845.0  86.88
5850.0  86.85
5855.0  86.81
5860.0  86.81
5865.0  86.85
5870.0  86.84
5875.0  86.89
5880.0  86.90
5885.0  86.86
5890.0  86.89
5895.0  86.78
5900.0  86.76
5905.0  86.88
5910.0  86.93
5915.0  86.84
5920.0  86.92
5925.0  86.91
5930.0  86.85
5935.0  86.80
5940.0  86.83
5945.0  86.78
5950.0  86.73
5955.0  86.86
5960.0  86.86
5965.0  86.91
5970.0  86.79
5975.0  86.77
5980.0  86.81
5985.0  86.80
5990.0  86.81
5995.0  86.81
6000.0  86.78
6005.0  86.81
6010.0  86.81
6015.0  86.87
6020.0  86.88
6025.0  86.81
6030.0  86.84
6035.0  86.81
6040.0  86.86
6045.0  86.85
6050.0  86.80
6055.0  86.86
6060.0  86.85
6065.0  86.83
6070.0  86.86
6075.0  86.79
6080.0  86.80
6085.0  86.89
6090.0  86.81
6095.0  86.84
6100.0  86.88
6105.0  86.88
6110.0  86.96
6115.0  86.77
6120.0  86.77
6125.0  86.88
6130.0  86.79
6135.0  86.87
6140.0  86.79
6145.0  86.82
6150.0  86.79
6155.0  86.76
6160.0  86.81
6165.0  86.76
6170.0  86.80
6175.0  86.73
6180.0  86.77
6185.0  86.72
6190.0  86.82
6195.0  86.85
6200.0  86.69
6205.0  86.70
6210.0  86.74
6215.0  86.72
6220.0  86.72
6225.0  86.74
6230.0  86.76
6235.0  86.75
6240.0  86.67
6245.0  86.71
6250.0  86.76
6255.0  86.80
6260.0  86.68
6265.0  86.86
6270.0  86.78
6275.0  86.79
6280.0  86.80
6285.0  86.79
6290.0  86.77
6295.0  86.80
6300.0  86.78
6305.0  86.79
6310.0  86.70
6315.0  86.69
6320.0  86.74
6325.0  86.74
6330.0  86.68
6335.0  86.72
6340.0  86.86
6345.0  86.73
6350.0  86.76
6355.0  86.66
6360.0  86.85
6365.0  86.76
6370.0  86.76
6375.0  86.77
6380.0  86.74
6385.0  86.76
6390.0  86.68
6395.0  86.74
6400.0  86.67
6405.0  86.74
6410.0  86.77
6415.0  86.78
6420.0  86.75
6425.0  86.82
6430.0  86.75
6435.0  86.84
6440.0  86.75
6445.0  86.81
6450.0  86.81
6455.0  86.81
6460.0  86.69
6465.0  86.85
6470.0  86.73
6475.0  86.85
6480.0  86.76
6485.0  86.85
6490.0  86.74
6495.0  86.77
6500.0  86.73
6505.0  86.77
6510.0  86.90
6515.0  86.85
6520.0  86.80
6525.0  86.83
6530.0  86.81
6535.0  86.94
6540.0  86.93
6545.0  86.85
6550.0  86.96
6555.0  86.90
6560.0  86.89
6565.0  86.82
6570.0  86.87
6575.0  86.86
6580.0  86.87
6585.0  86.89
6590.0  86.85
6595.0  86.80
6600.0  86.86
6605.0  86.94
6610.0  86.79
6615.0  86.90
6620.0  86.86
6625.0  86.88
6630.0  86.91
6635.0  86.87
6640.0  86.85
6645.0  86.94
6650.0  86.90
6655.0  86.88
6660.0  86.96
6665.0  86.93
6670.0  87.06
6675.0  86.96
6680.0  86.98
6685.0  86.98
6690.0  86.91
6695.0  87.03
6700.0  86.95
6705.0  86.97
6710.0  86.99
6715.0  86.99
6720.0  86.91
6725.0  87.01
6730.0  87.02
6735.0  86.96
6740.0  87.06
6745.0  87.12
6750.0  87.02
6755.0  87.15
6760.0  87.06
6765.0  87.07
6770.0  87.21
6775.0  87.07
6780.0  87.09
6785.0  87.04
6790.0  87.13
6795.0  87.17
6800.0  87.12
6805.0  87.08
6810.0  87.12
6815.0  87.11
6820.0  87.10
6825.0  87.26
6830.0  87.14
6835.0  87.22
6840.0  87.26
6845.0  87.19
6850.0  87.17
6855.0  87.30
6860.0  87.22
6865.0  87.12
6870.0  87.01
6875.0  87.14
6880.0  87.12
6885.0  87.16
6890.0  87.16
6895.0  87.06
6900.0  87.21
6905.0  87.21
6910.0  87.30
6915.0  87.21
6920.0  87.29
6925.0  87.28
6930.0  87.16
6935.0  87.23
6940.0  87.19
6945.0  87.21
6950.0  87.34
6955.0  87.30
6960.0  87.29
6965.0  87.21
6970.0  87.23
6975.0  87.28
6980.0  87.30
6985.0  87.35
6990.0  87.29
6995.0  87.28
7000.0  87.28
7005.0  87.46
7010.0  87.27
7015.0  87.35
7020.0  87.29
7025.0  87.27
7030.0  87.36
7035.0  87.36
7040.0  87.30
7045.0  87.23
7050.0  87.35
7055.0  87.28
7060.0  87.31
7065.0  87.12
7070.0  87.27
7075.0  87.29
7080.0  87.35
7085.0  87.28
7090.0  87.35
7095.0  87.33
7100.0  87.28
7105.0  87.31
7110.0  87.33
7115.0  87.38
7120.0  87.30
7125.0  87.43
7130.0  87.29
7135.0  87.28
7140.0  87.35
7145.0  87.35
7150.0  87.28
7155.0  87.33
7160.0  87.37
7165.0  87.36
7170.0  87.29
7175.0  87.31
7180.0  87.21
7185.0  87.19
7190.0  87.23
7195.0  87.27
7200.0  87.22
7205.0  87.33
7210.0  87.37
7215.0  87.29
7220.0  87.29
7225.0  87.34
7230.0  87.38
7235.0  87.37
7240.0  87.24
7245.0  87.36
7250.0  87.34
7255.0  87.32
7260.0  87.24
7265.0  87.26
7270.0  87.28
7275.0  87.36
7280.0  87.29
7285.0  87.32
7290.0  87.28
7295.0  87.23
7300.0  87.20
7305.0  87.27
7310.0  87.24
7315.0  87.30
7320.0  87.32
7325.0  87.20
7330.0  87.30
7335.0  87.34
7340.0  87.22
7345.0  87.24
7350.0  87.37
7355.0  87.32
7360.0  87.25
7365.0  87.28
7370.0  87.32
7375.0  87.20
7380.0  87.30
7385.0  87.32
7390.0  87.24
7395.0  87.26
7400.0  87.24
7405.0  87.28
7410.0  87.29
7415.0  87.31
7420.0  87.26
7425.0  87.23
7430.0  87.30
7435.0  87.31
7440.0  87.24
7445.0  87.24
7450.0  87.22
7455.0  87.39
7460.0  87.26
7465.0  87.27
7470.0  87.33
7475.0  87.42
7480.0  87.41
7485.0  87.11
7490.0  87.23
7495.0  87.27
7500.0  87.33
7505.0  87.32
7510.0  87.25
7515.0  87.23
7520.0  87.27
7525.0  87.19
7530.0  87.30
7535.0  87.20
7540.0  87.33
7545.0  87.28
7550.0  87.32
7555.0  87.29
7560.0  87.18
7565.0  87.35
7570.0  87.39
7575.0  87.35
7580.0  87.28
7585.0  87.24
7590.0  87.26
7595.0  87.31
7600.0  87.27
7605.0  87.36
7610.0  87.19
7615.0  87.31
7620.0  87.36
7625.0  87.24
7630.0  87.24
7635.0  87.18
7640.0  87.20
7645.0  87.33
7650.0  87.36
7655.0  87.29
7660.0  87.36
7665.0  87.36
7670.0  87.29
7675.0  87.22
7680.0  87.32
7685.0  87.30
7690.0  87.32
7695.0  87.23
7700.0  87.23
7705.0  87.26
7710.0  87.12
7715.0  87.27
7720.0  87.25
7725.0  87.18
7730.0  87.25
7735.0  87.31
7740.0  87.19
7745.0  87.24
7750.0  87.24
7755.0  87.25
7760.0  87.38
7765.0  87.24
7770.0  87.30
7775.0  87.29
7780.0  87.31
7785.0  87.09
7790.0  87.24
7795.0  87.21
7800.0  87.18
7805.0  87.27
7810.0  87.30
7815.0  87.30
7820.0  87.35
7825.0  87.31
7830.0  87.16
7835.0  87.13
7840.0  87.23
7845.0  87.19
7850.0  87.28
7855.0  87.27
7860.0  87.21
7865.0  87.30
7870.0  87.32
7875.0  87.21
7880.0  87.22
7885.0  87.24
7890.0  87.35
7895.0  87.26
7900.0  87.33
7905.0  87.30
7910.0  87.23
7915.0  87.21
7920.0  87.27
7925.0  87.31
7930.0  87.21
7935.0  87.38
7940.0  87.19
7945.0  87.34
7950.0  87.28
7955.0  87.28
7960.0  87.38
7965.0  87.39
7970.0  87.38
7975.0  87.37
7980.0  87.29
7985.0  87.24
7990.0  87.37
7995.0  87.28
8000.0  87.20
8005.0  87.21
8010.0  87.33
8015.0  87.45
8020.0  87.50
8025.0  87.37
8030.0  87.37
8035.0  87.45
8040.0  87.30
8045.0  87.40
8050.0  87.39
8055.0  87.37
8060.0  87.28
8065.0  87.36
8070.0  87.29
8075.0  87.35
8080.0  87.35
8085.0  87.26
8090.0  87.33
8095.0  87.36
8100.0  87.41
8105.0  87.49
8110.0  87.44
8115.0  87.34
8120.0  87.37
8125.0  87.37
8130.0  87.41
8135.0  87.38
8140.0  87.46
8145.0  87.36
8150.0  87.37
8155.0  87.45
8160.0  87.55
8165.0  87.40
8170.0  87.46
8175.0  87.50
8180.0  87.50
8185.0  87.47
8190.0  87.44
8195.0  87.44
8200.0  87.46
8205.0  87.41
8210.0  87.47
8215.0  87.42
8220.0  87.42
8225.0  87.46
8230.0  87.48
8235.0  87.38
8240.0  87.42
8245.0  87.56
8250.0  87.48
8255.0  87.43
8260.0  87.50
8265.0  87.49
8270.0  87.39
8275.0  87.45
8280.0  87.51
8285.0  87.46
8290.0  87.44
8295.0  87.42
8300.0  87.40
8305.0  87.42
8310.0  87.52
8315.0  87.50
8320.0  87.54
8325.0  87.57
8330.0  87.55
8335.0  87.57
8340.0  87.53
8345.0  87.60
8350.0  87.62
8355.0  87.35
8360.0  87.45
8365.0  87.32
8370.0  87.46
8375.0  87.43
8380.0  87.46
8385.0  87.53
8390.0  87.61
8395.0  87.39
8400.0  87.44
8405.0  87.52
8410.0  87.52
8415.0  87.42
8420.0  87.63
8425.0  87.55
8430.0  87.58
8435.0  87.45
8440.0  87.47
8445.0  87.33
8450.0  87.52
8455.0  87.47
8460.0  87.56
8465.0  87.45
8470.0  87.49
8475.0  87.48
8480.0  87.57
8485.0  87.45
8490.0  87.53
8495.0  87.46
8500.0  87.47
8505.0  87.51
8510.0  87.46
8515.0  87.45
8520.0  87.46
8525.0  87.64
8530.0  87.72
8535.0  87.46
8540.0  87.35
8545.0  87.55
8550.0  87.62
8555.0  87.52
8560.0  87.52
8565.0  87.67
8570.0  87.57
8575.0  87.44
8580.0  87.39
8585.0  87.47
8590.0  87.43
8595.0  87.50
8600.0  87.42
8605.0  87.51
8610.0  87.36
8615.0  87.52
8620.0  87.60
8625.0  87.61
8630.0  87.41
8635.0  87.51
8640.0  87.42
8645.0  87.54
8650.0  87.53
8655.0  87.49
8660.0  87.47
8665.0  87.25
8670.0  87.46
8675.0  87.52
8680.0  87.52
8685.0  87.53
8690.0  87.59
8695.0  87.45
8700.0  87.32
8705.0  87.47
8710.0  87.30
8715.0  87.46
8720.0  87.66
8725.0  87.38
8730.0  87.44
8735.0  87.44
8740.0  87.34
8745.0  87.41
8750.0  87.43
8755.0  87.45
8760.0  87.40
8765.0  87.56
8770.0  87.42
8775.0  87.42
8780.0  87.45
8785.0  87.41
8790.0  87.44
8795.0  87.39
8800.0  87.40
8805.0  87.45
8810.0  87.49
8815.0  87.50
8820.0  87.38
8825.0  87.43
8830.0  87.44
8835.0  87.42
8840.0  87.48
8845.0  87.50
8850.0  87.41
8855.0  87.37
8860.0  87.55
8865.0  87.43
8870.0  87.44
8875.0  87.42
8880.0  87.33
8885.0  87.34
8890.0  87.31
8895.0  87.33
8900.0  87.47
8905.0  87.52
8910.0  87.48
8915.0  87.46
8920.0  87.44
8925.0  87.33
8930.0  87.28
8935.0  87.29
8940.0  87.31
8945.0  87.48
8950.0  87.39
8955.0  87.41
8960.0  87.27
8965.0  87.40
8970.0  87.37
8975.0  87.25
8980.0  87.21
8985.0  87.45
8990.0  87.32
8995.0  87.33
9000.0  87.31
9005.0  87.28
9010.0  87.51
9015.0  87.37
9020.0  87.46
9025.0  87.38
9030.0  87.29
9035.0  87.35
9040.0  87.37
9045.0  87.30
9050.0  87.24
9055.0  87.18
9060.0  87.33
9065.0  87.30
9070.0  87.30
9075.0  87.21
9080.0  87.35
9085.0  88.00
